Wavelength;Channel 1
1510.0;-37.23
1510.02;-37.23
1510.04;-37.23
1510.06;-37.23
1510.08;-37.23
1510.1;-37.23
1510.12;-37.23
1510.1399999999999;-37.23
1510.1599999999999;-37.23
1510.1799999999998;-37.23
1510.1999999999998;-37.23
1510.2199999999998;-37.23
1510.2399999999998;-37.23
1510.2599999999998;-37.23
1510.2799999999997;-37.23
1510.2999999999997;-37.23
1510.3199999999997;-37.23
1510.3399999999997;-37.23
1510.3599999999997;-37.23
1510.3799999999997;-37.23
1510.3999999999996;-37.23
1510.4199999999996;-37.23
1510.4399999999996;-37.16
1510.4599999999996;-36.88
1510.4799999999996;-36.82
1510.4999999999995;-36.7
1510.5199999999995;-36.59
1510.5399999999995;-36.44
1510.5599999999995;-36.35
1510.5799999999995;-36.34
1510.5999999999995;-36.26
1510.6199999999994;-36.32
1510.6399999999994;-36.3
1510.6599999999994;-36.2
1510.6799999999994;-36.31
1510.6999999999994;-36.22
1510.7199999999993;-36.32
1510.7399999999993;-36.28
1510.7599999999993;-36.31
1510.7799999999993;-36.32
1510.7999999999993;-36.48
1510.8199999999993;-36.5
1510.8399999999992;-36.6
1510.8599999999992;-36.64
1510.8799999999992;-36.84
1510.8999999999992;-36.84
1510.9199999999992;-37.03
1510.9399999999991;-37.18
1510.9599999999991;-37.25
1510.979999999999;-37.49
1510.999999999999;-37.77
1511.019999999999;-37.98
1511.039999999999;-38.13
1511.059999999999;-38.39
1511.079999999999;-38.68
1511.099999999999;-38.89
1511.119999999999;-39.04
1511.139999999999;-39.24
1511.159999999999;-39.68
1511.179999999999;-39.98
1511.199999999999;-40.64
1511.219999999999;-41.06
1511.2399999999989;-41.28
1511.2599999999989;-41.8
1511.2799999999988;-42.11
1511.2999999999988;-42.32
1511.3199999999988;-42.55
1511.3399999999988;-43.39
1511.3599999999988;-43.58
1511.3799999999987;-43.71
1511.3999999999987;-43.75
1511.4199999999987;-43.6
1511.4399999999987;-43.35
1511.4599999999987;-42.89
1511.4799999999987;-42.79
1511.4999999999986;-42.13
1511.5199999999986;-41.74
1511.5399999999986;-41.21
1511.5599999999986;-40.7
1511.5799999999986;-40.37
1511.5999999999985;-39.88
1511.6199999999985;-39.23
1511.6399999999985;-39.02
1511.6599999999985;-38.77
1511.6799999999985;-38.53
1511.6999999999985;-38.26
1511.7199999999984;-38.13
1511.7399999999984;-37.96
1511.7599999999984;-37.7
1511.7799999999984;-37.58
1511.7999999999984;-37.4
1511.8199999999983;-37.3
1511.8399999999983;-37.11
1511.8599999999983;-37.03
1511.8799999999983;-37.0
1511.8999999999983;-36.95
1511.9199999999983;-36.91
1511.9399999999982;-36.87
1511.9599999999982;-36.81
1511.9799999999982;-36.73
1511.9999999999982;-36.69
1512.0199999999982;-36.79
1512.0399999999981;-36.77
1512.0599999999981;-36.83
1512.079999999998;-36.91
1512.099999999998;-36.93
1512.119999999998;-37.11
1512.139999999998;-37.08
1512.159999999998;-37.09
1512.179999999998;-37.34
1512.199999999998;-37.37
1512.219999999998;-37.54
1512.239999999998;-37.62
1512.259999999998;-37.78
1512.279999999998;-37.92
1512.299999999998;-37.98
1512.319999999998;-38.41
1512.3399999999979;-38.42
1512.3599999999979;-38.56
1512.3799999999978;-38.72
1512.3999999999978;-38.85
1512.4199999999978;-39.01
1512.4399999999978;-39.14
1512.4599999999978;-39.57
1512.4799999999977;-39.94
1512.4999999999977;-40.27
1512.5199999999977;-40.69
1512.5399999999977;-40.82
1512.5599999999977;-41.33
1512.5799999999977;-41.55
1512.5999999999976;-41.67
1512.6199999999976;-42.03
1512.6399999999976;-42.7
1512.6599999999976;-43.04
1512.6799999999976;-43.17
1512.6999999999975;-43.61
1512.7199999999975;-43.69
1512.7399999999975;-43.88
1512.7599999999975;-44.13
1512.7799999999975;-43.88
1512.7999999999975;-43.63
1512.8199999999974;-43.06
1512.8399999999974;-42.58
1512.8599999999974;-42.15
1512.8799999999974;-41.73
1512.8999999999974;-41.21
1512.9199999999973;-40.72
1512.9399999999973;-40.1
1512.9599999999973;-39.55
1512.9799999999973;-39.2
1512.9999999999973;-38.89
1513.0199999999973;-38.44
1513.0399999999972;-37.96
1513.0599999999972;-37.53
1513.0799999999972;-37.18
1513.0999999999972;-36.85
1513.1199999999972;-36.49
1513.1399999999971;-36.22
1513.1599999999971;-36.1
1513.179999999997;-35.96
1513.199999999997;-35.85
1513.219999999997;-35.78
1513.239999999997;-35.69
1513.259999999997;-35.56
1513.279999999997;-35.5
1513.299999999997;-35.53
1513.319999999997;-35.49
1513.339999999997;-35.54
1513.359999999997;-35.51
1513.379999999997;-35.5
1513.399999999997;-35.56
1513.419999999997;-35.64
1513.4399999999969;-35.66
1513.4599999999969;-35.71
1513.4799999999968;-35.82
1513.4999999999968;-35.85
1513.5199999999968;-35.98
1513.5399999999968;-36.07
1513.5599999999968;-36.23
1513.5799999999967;-36.27
1513.5999999999967;-36.41
1513.6199999999967;-36.65
1513.6399999999967;-36.85
1513.6599999999967;-37.05
1513.6799999999967;-37.34
1513.6999999999966;-37.63
1513.7199999999966;-37.87
1513.7399999999966;-38.22
1513.7599999999966;-38.55
1513.7799999999966;-38.88
1513.7999999999965;-39.24
1513.8199999999965;-39.73
1513.8399999999965;-40.29
1513.8599999999965;-40.91
1513.8799999999965;-41.47
1513.8999999999965;-41.97
1513.9199999999964;-42.74
1513.9399999999964;-43.76
1513.9599999999964;-44.25
1513.9799999999964;-45.25
1513.9999999999964;-46.57
1514.0199999999963;-47.26
1514.0399999999963;-47.98
1514.0599999999963;-48.89
1514.0799999999963;-48.56
1514.0999999999963;-48.12
1514.1199999999963;-46.34
1514.1399999999962;-45.86
1514.1599999999962;-45.03
1514.1799999999962;-43.96
1514.1999999999962;-42.86
1514.2199999999962;-42.07
1514.2399999999961;-41.39
1514.2599999999961;-40.79
1514.279999999996;-39.91
1514.299999999996;-39.19
1514.319999999996;-38.68
1514.339999999996;-38.19
1514.359999999996;-37.76
1514.379999999996;-37.34
1514.399999999996;-36.87
1514.419999999996;-36.35
1514.439999999996;-35.96
1514.459999999996;-35.68
1514.479999999996;-35.46
1514.499999999996;-35.21
1514.519999999996;-35.01
1514.5399999999959;-34.83
1514.5599999999959;-34.73
1514.5799999999958;-34.59
1514.5999999999958;-34.44
1514.6199999999958;-34.33
1514.6399999999958;-34.31
1514.6599999999958;-34.16
1514.6799999999957;-34.1
1514.6999999999957;-34.15
1514.7199999999957;-34.11
1514.7399999999957;-34.05
1514.7599999999957;-34.11
1514.7799999999957;-34.1
1514.7999999999956;-34.14
1514.8199999999956;-34.17
1514.8399999999956;-34.22
1514.8599999999956;-34.27
1514.8799999999956;-34.31
1514.8999999999955;-34.34
1514.9199999999955;-34.47
1514.9399999999955;-34.58
1514.9599999999955;-34.71
1514.9799999999955;-34.85
1514.9999999999955;-34.97
1515.0199999999954;-35.05
1515.0399999999954;-35.19
1515.0599999999954;-35.36
1515.0799999999954;-35.49
1515.0999999999954;-35.69
1515.1199999999953;-35.85
1515.1399999999953;-36.04
1515.1599999999953;-36.35
1515.1799999999953;-36.7
1515.1999999999953;-37.17
1515.2199999999953;-37.52
1515.2399999999952;-37.95
1515.2599999999952;-38.39
1515.2799999999952;-38.76
1515.2999999999952;-39.24
1515.3199999999952;-39.77
1515.3399999999951;-40.6
1515.3599999999951;-41.72
1515.379999999995;-42.58
1515.399999999995;-43.3
1515.419999999995;-44.63
1515.439999999995;-46.06
1515.459999999995;-47.39
1515.479999999995;-48.6
1515.499999999995;-49.34
1515.519999999995;-49.69
1515.539999999995;-49.1
1515.559999999995;-47.18
1515.579999999995;-45.23
1515.599999999995;-43.88
1515.619999999995;-42.69
1515.6399999999949;-41.65
1515.6599999999949;-40.88
1515.6799999999948;-40.09
1515.6999999999948;-39.3
1515.7199999999948;-38.63
1515.7399999999948;-38.13
1515.7599999999948;-37.6
1515.7799999999947;-37.03
1515.7999999999947;-36.44
1515.8199999999947;-36.09
1515.8399999999947;-35.75
1515.8599999999947;-35.45
1515.8799999999947;-35.21
1515.8999999999946;-35.01
1515.9199999999946;-34.75
1515.9399999999946;-34.55
1515.9599999999946;-34.37
1515.9799999999946;-34.15
1515.9999999999945;-33.98
1516.0199999999945;-33.85
1516.0399999999945;-33.74
1516.0599999999945;-33.68
1516.0799999999945;-33.62
1516.0999999999945;-33.51
1516.1199999999944;-33.44
1516.1399999999944;-33.37
1516.1599999999944;-33.42
1516.1799999999944;-33.42
1516.1999999999944;-33.37
1516.2199999999943;-33.37
1516.2399999999943;-33.4
1516.2599999999943;-33.44
1516.2799999999943;-33.43
1516.2999999999943;-33.47
1516.3199999999943;-33.53
1516.3399999999942;-33.52
1516.3599999999942;-33.55
1516.3799999999942;-33.69
1516.3999999999942;-33.78
1516.4199999999942;-33.85
1516.4399999999941;-33.92
1516.4599999999941;-34.04
1516.479999999994;-34.14
1516.499999999994;-34.29
1516.519999999994;-34.42
1516.539999999994;-34.51
1516.559999999994;-34.66
1516.579999999994;-34.86
1516.599999999994;-35.03
1516.619999999994;-35.18
1516.639999999994;-35.4
1516.659999999994;-35.58
1516.679999999994;-35.82
1516.699999999994;-36.08
1516.719999999994;-36.31
1516.7399999999939;-36.73
1516.7599999999939;-37.17
1516.7799999999938;-37.75
1516.7999999999938;-38.23
1516.8199999999938;-38.75
1516.8399999999938;-39.43
1516.8599999999938;-40.13
1516.8799999999937;-41.01
1516.8999999999937;-41.66
1516.9199999999937;-42.47
1516.9399999999937;-43.53
1516.9599999999937;-44.74
1516.9799999999937;-45.05
1516.9999999999936;-45.52
1517.0199999999936;-46.18
1517.0399999999936;-46.5
1517.0599999999936;-46.23
1517.0799999999936;-44.78
1517.0999999999935;-43.37
1517.1199999999935;-42.57
1517.1399999999935;-41.71
1517.1599999999935;-40.75
1517.1799999999935;-39.87
1517.1999999999935;-39.09
1517.2199999999934;-38.53
1517.2399999999934;-38.07
1517.2599999999934;-37.55
1517.2799999999934;-36.91
1517.2999999999934;-36.5
1517.3199999999933;-36.07
1517.3399999999933;-35.79
1517.3599999999933;-35.52
1517.3799999999933;-35.25
1517.3999999999933;-34.98
1517.4199999999933;-34.73
1517.4399999999932;-34.48
1517.4599999999932;-34.31
1517.4799999999932;-34.19
1517.4999999999932;-34.05
1517.5199999999932;-33.95
1517.5399999999931;-33.82
1517.5599999999931;-33.69
1517.579999999993;-33.61
1517.599999999993;-33.51
1517.619999999993;-33.51
1517.639999999993;-33.45
1517.659999999993;-33.45
1517.679999999993;-33.4
1517.699999999993;-33.38
1517.719999999993;-33.36
1517.739999999993;-33.33
1517.759999999993;-33.32
1517.779999999993;-33.37
1517.799999999993;-33.41
1517.819999999993;-33.43
1517.8399999999929;-33.48
1517.8599999999929;-33.5
1517.8799999999928;-33.56
1517.8999999999928;-33.66
1517.9199999999928;-33.72
1517.9399999999928;-33.84
1517.9599999999928;-33.91
1517.9799999999927;-33.98
1517.9999999999927;-34.1
1518.0199999999927;-34.21
1518.0399999999927;-34.32
1518.0599999999927;-34.46
1518.0799999999927;-34.61
1518.0999999999926;-34.74
1518.1199999999926;-34.89
1518.1399999999926;-35.06
1518.1599999999926;-35.28
1518.1799999999926;-35.49
1518.1999999999925;-35.74
1518.2199999999925;-35.99
1518.2399999999925;-36.23
1518.2599999999925;-36.53
1518.2799999999925;-37.08
1518.2999999999925;-37.53
1518.3199999999924;-38.04
1518.3399999999924;-38.6
1518.3599999999924;-39.05
1518.3799999999924;-39.71
1518.3999999999924;-40.42
1518.4199999999923;-41.36
1518.4399999999923;-42.31
1518.4599999999923;-43.34
1518.4799999999923;-44.17
1518.4999999999923;-45.03
1518.5199999999923;-46.26
1518.5399999999922;-46.69
1518.5599999999922;-46.72
1518.5799999999922;-46.75
1518.5999999999922;-46.6
1518.6199999999922;-45.31
1518.6399999999921;-43.95
1518.6599999999921;-43.02
1518.679999999992;-41.99
1518.699999999992;-41.01
1518.719999999992;-40.32
1518.739999999992;-39.61
1518.759999999992;-39.15
1518.779999999992;-38.6
1518.799999999992;-37.99
1518.819999999992;-37.36
1518.839999999992;-36.8
1518.859999999992;-36.51
1518.879999999992;-36.12
1518.899999999992;-35.85
1518.919999999992;-35.59
1518.9399999999919;-35.37
1518.9599999999919;-35.18
1518.9799999999918;-34.97
1518.9999999999918;-34.79
1519.0199999999918;-34.71
1519.0399999999918;-34.58
1519.0599999999918;-34.47
1519.0799999999917;-34.36
1519.0999999999917;-34.25
1519.1199999999917;-34.16
1519.1399999999917;-34.13
1519.1599999999917;-34.04
1519.1799999999917;-34.0
1519.1999999999916;-33.98
1519.2199999999916;-33.89
1519.2399999999916;-33.91
1519.2599999999916;-33.86
1519.2799999999916;-33.88
1519.2999999999915;-33.92
1519.3199999999915;-33.91
1519.3399999999915;-33.92
1519.3599999999915;-33.95
1519.3799999999915;-34.02
1519.3999999999915;-34.02
1519.4199999999914;-34.03
1519.4399999999914;-34.09
1519.4599999999914;-34.16
1519.4799999999914;-34.25
1519.4999999999914;-34.36
1519.5199999999913;-34.45
1519.5399999999913;-34.54
1519.5599999999913;-34.66
1519.5799999999913;-34.85
1519.5999999999913;-34.98
1519.6199999999913;-35.15
1519.6399999999912;-35.32
1519.6599999999912;-35.51
1519.6799999999912;-35.7
1519.6999999999912;-35.87
1519.7199999999912;-36.12
1519.7399999999911;-36.36
1519.7599999999911;-36.59
1519.779999999991;-37.0
1519.799999999991;-37.45
1519.819999999991;-37.97
1519.839999999991;-38.43
1519.859999999991;-38.89
1519.879999999991;-39.42
1519.899999999991;-40.1
1519.919999999991;-40.98
1519.939999999991;-41.8
1519.959999999991;-42.81
1519.979999999991;-44.01
1519.999999999991;-45.08
1520.019999999991;-46.31
1520.0399999999909;-47.08
1520.0599999999909;-47.89
1520.0799999999908;-47.25
1520.0999999999908;-47.91
1520.1199999999908;-47.9
1520.1399999999908;-47.05
1520.1599999999908;-46.59
1520.1799999999907;-44.75
1520.1999999999907;-43.4
1520.2199999999907;-42.6
1520.2399999999907;-41.69
1520.2599999999907;-40.86
1520.2799999999907;-40.09
1520.2999999999906;-39.21
1520.3199999999906;-38.75
1520.3399999999906;-38.33
1520.3599999999906;-37.9
1520.3799999999906;-37.55
1520.3999999999905;-37.2
1520.4199999999905;-36.79
1520.4399999999905;-36.47
1520.4599999999905;-36.25
1520.4799999999905;-36.05
1520.4999999999905;-35.9
1520.5199999999904;-35.77
1520.5399999999904;-35.64
1520.5599999999904;-35.45
1520.5799999999904;-35.35
1520.5999999999904;-35.27
1520.6199999999903;-35.12
1520.6399999999903;-35.06
1520.6599999999903;-34.98
1520.6799999999903;-34.86
1520.6999999999903;-34.85
1520.7199999999903;-34.83
1520.7399999999902;-34.81
1520.7599999999902;-34.79
1520.7799999999902;-34.73
1520.7999999999902;-34.72
1520.8199999999902;-34.71
1520.8399999999901;-34.68
1520.8599999999901;-34.71
1520.87999999999;-34.74
1520.89999999999;-34.76
1520.91999999999;-34.8
1520.93999999999;-34.89
1520.95999999999;-34.95
1520.97999999999;-35.0
1520.99999999999;-35.05
1521.01999999999;-35.13
1521.03999999999;-35.26
1521.05999999999;-35.4
1521.07999999999;-35.51
1521.09999999999;-35.65
1521.11999999999;-35.77
1521.1399999999899;-35.89
1521.1599999999899;-36.08
1521.1799999999898;-36.26
1521.1999999999898;-36.51
1521.2199999999898;-36.85
1521.2399999999898;-37.24
1521.2599999999898;-37.6
1521.2799999999897;-37.95
1521.2999999999897;-38.32
1521.3199999999897;-38.68
1521.3399999999897;-39.13
1521.3599999999897;-39.66
1521.3799999999896;-40.23
1521.3999999999896;-40.91
1521.4199999999896;-41.6
1521.4399999999896;-42.29
1521.4599999999896;-42.89
1521.4799999999896;-43.42
1521.4999999999895;-43.99
1521.5199999999895;-45.45
1521.5399999999895;-46.6
1521.5599999999895;-46.53
1521.5799999999895;-45.73
1521.5999999999894;-45.32
1521.6199999999894;-45.24
1521.6399999999894;-44.43
1521.6599999999894;-43.99
1521.6799999999894;-43.58
1521.6999999999894;-42.85
1521.7199999999893;-41.95
1521.7399999999893;-41.35
1521.7599999999893;-41.12
1521.7799999999893;-40.47
1521.7999999999893;-39.8
1521.8199999999892;-39.19
1521.8399999999892;-38.81
1521.8599999999892;-38.62
1521.8799999999892;-38.41
1521.8999999999892;-38.06
1521.9199999999892;-37.83
1521.9399999999891;-37.56
1521.9599999999891;-37.29
1521.979999999989;-37.07
1521.999999999989;-36.88
1522.019999999989;-36.68
1522.039999999989;-36.44
1522.059999999989;-36.32
1522.079999999989;-36.22
1522.099999999989;-36.12
1522.119999999989;-36.07
1522.139999999989;-35.96
1522.159999999989;-35.87
1522.179999999989;-35.8
1522.199999999989;-35.75
1522.2199999999889;-35.73
1522.2399999999889;-35.73
1522.2599999999888;-35.76
1522.2799999999888;-35.78
1522.2999999999888;-35.8
1522.3199999999888;-35.77
1522.3399999999888;-35.77
1522.3599999999888;-35.82
1522.3799999999887;-35.91
1522.3999999999887;-35.9
1522.4199999999887;-35.91
1522.4399999999887;-35.99
1522.4599999999887;-36.03
1522.4799999999886;-36.12
1522.4999999999886;-36.23
1522.5199999999886;-36.3
1522.5399999999886;-36.45
1522.5599999999886;-36.64
1522.5799999999886;-36.77
1522.5999999999885;-36.98
1522.6199999999885;-37.25
1522.6399999999885;-37.49
1522.6599999999885;-37.74
1522.6799999999885;-38.01
1522.6999999999884;-38.25
1522.7199999999884;-38.41
1522.7399999999884;-38.64
1522.7599999999884;-38.96
1522.7799999999884;-39.39
1522.7999999999884;-39.79
1522.8199999999883;-40.16
1522.8399999999883;-40.65
1522.8599999999883;-40.91
1522.8799999999883;-41.21
1522.8999999999883;-41.56
1522.9199999999882;-41.91
1522.9399999999882;-41.94
1522.9599999999882;-42.04
1522.9799999999882;-42.33
1522.9999999999882;-42.43
1523.0199999999882;-42.24
1523.0399999999881;-41.99
1523.0599999999881;-41.97
1523.079999999988;-41.86
1523.099999999988;-41.58
1523.119999999988;-41.17
1523.139999999988;-40.89
1523.159999999988;-40.5
1523.179999999988;-40.02
1523.199999999988;-39.6
1523.219999999988;-39.26
1523.239999999988;-38.94
1523.259999999988;-38.66
1523.279999999988;-38.41
1523.299999999988;-38.18
1523.3199999999879;-38.0
1523.3399999999879;-37.84
1523.3599999999878;-37.6
1523.3799999999878;-37.41
1523.3999999999878;-37.27
1523.4199999999878;-37.11
1523.4399999999878;-36.97
1523.4599999999878;-36.87
1523.4799999999877;-36.69
1523.4999999999877;-36.61
1523.5199999999877;-36.54
1523.5399999999877;-36.4
1523.5599999999877;-36.44
1523.5799999999876;-36.46
1523.5999999999876;-36.44
1523.6199999999876;-36.49
1523.6399999999876;-36.44
1523.6599999999876;-36.37
1523.6799999999876;-36.43
1523.6999999999875;-36.54
1523.7199999999875;-36.64
1523.7399999999875;-36.7
1523.7599999999875;-36.79
1523.7799999999875;-36.87
1523.7999999999874;-36.93
1523.8199999999874;-37.02
1523.8399999999874;-37.2
1523.8599999999874;-37.4
1523.8799999999874;-37.59
1523.8999999999874;-37.77
1523.9199999999873;-37.94
1523.9399999999873;-38.07
1523.9599999999873;-38.22
1523.9799999999873;-38.41
1523.9999999999873;-38.6
1524.0199999999872;-38.8
1524.0399999999872;-39.04
1524.0599999999872;-39.29
1524.0799999999872;-39.6
1524.0999999999872;-40.0
1524.1199999999872;-40.48
1524.1399999999871;-40.77
1524.1599999999871;-40.81
1524.179999999987;-41.1
1524.199999999987;-41.5
1524.219999999987;-42.01
1524.239999999987;-42.18
1524.259999999987;-42.37
1524.279999999987;-42.44
1524.299999999987;-42.35
1524.319999999987;-42.18
1524.339999999987;-41.98
1524.359999999987;-41.81
1524.379999999987;-41.7
1524.399999999987;-41.42
1524.4199999999869;-41.27
1524.4399999999869;-41.15
1524.4599999999868;-40.75
1524.4799999999868;-40.27
1524.4999999999868;-39.74
1524.5199999999868;-39.28
1524.5399999999868;-39.02
1524.5599999999868;-38.74
1524.5799999999867;-38.4
1524.5999999999867;-38.02
1524.6199999999867;-37.66
1524.6399999999867;-37.34
1524.6599999999867;-37.04
1524.6799999999866;-36.82
1524.6999999999866;-36.53
1524.7199999999866;-36.29
1524.7399999999866;-36.09
1524.7599999999866;-35.92
1524.7799999999866;-35.79
1524.7999999999865;-35.7
1524.8199999999865;-35.61
1524.8399999999865;-35.53
1524.8599999999865;-35.49
1524.8799999999865;-35.49
1524.8999999999864;-35.46
1524.9199999999864;-35.4
1524.9399999999864;-35.37
1524.9599999999864;-35.35
1524.9799999999864;-35.35
1524.9999999999864;-35.38
1525.0199999999863;-35.43
1525.0399999999863;-35.48
1525.0599999999863;-35.51
1525.0799999999863;-35.56
1525.0999999999863;-35.6
1525.1199999999862;-35.69
1525.1399999999862;-35.83
1525.1599999999862;-35.88
1525.1799999999862;-35.94
1525.1999999999862;-36.05
1525.2199999999862;-36.22
1525.2399999999861;-36.32
1525.2599999999861;-36.57
1525.279999999986;-36.87
1525.299999999986;-37.18
1525.319999999986;-37.47
1525.339999999986;-37.75
1525.359999999986;-38.01
1525.379999999986;-38.21
1525.399999999986;-38.59
1525.419999999986;-39.0
1525.439999999986;-39.5
1525.459999999986;-40.18
1525.479999999986;-40.66
1525.499999999986;-41.28
1525.5199999999859;-42.04
1525.5399999999859;-42.73
1525.5599999999858;-43.19
1525.5799999999858;-44.01
1525.5999999999858;-44.87
1525.6199999999858;-45.04
1525.6399999999858;-45.99
1525.6599999999858;-46.6
1525.6799999999857;-46.65
1525.6999999999857;-46.84
1525.7199999999857;-45.84
1525.7399999999857;-44.87
1525.7599999999857;-44.58
1525.7799999999856;-43.43
1525.7999999999856;-42.6
1525.8199999999856;-41.93
1525.8399999999856;-41.28
1525.8599999999856;-40.82
1525.8799999999856;-40.18
1525.8999999999855;-39.47
1525.9199999999855;-38.97
1525.9399999999855;-38.55
1525.9599999999855;-38.12
1525.9799999999855;-37.65
1525.9999999999854;-37.16
1526.0199999999854;-36.68
1526.0399999999854;-36.28
1526.0599999999854;-35.99
1526.0799999999854;-35.76
1526.0999999999854;-35.52
1526.1199999999853;-35.3
1526.1399999999853;-35.11
1526.1599999999853;-34.91
1526.1799999999853;-34.73
1526.1999999999853;-34.56
1526.2199999999852;-34.37
1526.2399999999852;-34.28
1526.2599999999852;-34.15
1526.2799999999852;-34.03
1526.2999999999852;-33.92
1526.3199999999852;-33.87
1526.3399999999851;-33.83
1526.3599999999851;-33.8
1526.379999999985;-33.79
1526.399999999985;-33.77
1526.419999999985;-33.8
1526.439999999985;-33.84
1526.459999999985;-33.89
1526.479999999985;-33.93
1526.499999999985;-33.99
1526.519999999985;-34.04
1526.539999999985;-34.05
1526.559999999985;-34.11
1526.579999999985;-34.22
1526.599999999985;-34.37
1526.6199999999849;-34.47
1526.6399999999849;-34.6
1526.6599999999848;-34.74
1526.6799999999848;-34.85
1526.6999999999848;-34.99
1526.7199999999848;-35.12
1526.7399999999848;-35.26
1526.7599999999848;-35.45
1526.7799999999847;-35.64
1526.7999999999847;-35.83
1526.8199999999847;-36.08
1526.8399999999847;-36.4
1526.8599999999847;-36.82
1526.8799999999846;-37.21
1526.8999999999846;-37.61
1526.9199999999846;-38.15
1526.9399999999846;-38.66
1526.9599999999846;-39.22
1526.9799999999846;-39.91
1526.9999999999845;-40.83
1527.0199999999845;-41.56
1527.0399999999845;-42.41
1527.0599999999845;-43.13
1527.0799999999845;-44.21
1527.0999999999844;-45.99
1527.1199999999844;-47.19
1527.1399999999844;-46.96
1527.1599999999844;-48.63
1527.1799999999844;-48.35
1527.1999999999844;-47.4
1527.2199999999843;-46.35
1527.2399999999843;-44.73
1527.2599999999843;-43.62
1527.2799999999843;-42.51
1527.2999999999843;-41.33
1527.3199999999842;-40.63
1527.3399999999842;-39.86
1527.3599999999842;-39.14
1527.3799999999842;-38.72
1527.3999999999842;-38.17
1527.4199999999842;-37.64
1527.4399999999841;-37.05
1527.4599999999841;-36.51
1527.479999999984;-36.11
1527.499999999984;-35.79
1527.519999999984;-35.53
1527.539999999984;-35.25
1527.559999999984;-34.98
1527.579999999984;-34.7
1527.599999999984;-34.47
1527.619999999984;-34.25
1527.639999999984;-34.04
1527.659999999984;-33.85
1527.679999999984;-33.7
1527.699999999984;-33.58
1527.7199999999839;-33.41
1527.7399999999839;-33.31
1527.7599999999838;-33.25
1527.7799999999838;-33.23
1527.7999999999838;-33.17
1527.8199999999838;-33.15
1527.8399999999838;-33.18
1527.8599999999838;-33.12
1527.8799999999837;-33.1
1527.8999999999837;-33.1
1527.9199999999837;-33.13
1527.9399999999837;-33.15
1527.9599999999837;-33.16
1527.9799999999836;-33.16
1527.9999999999836;-33.21
1528.0199999999836;-33.26
1528.0399999999836;-33.32
1528.0599999999836;-33.37
1528.0799999999836;-33.42
1528.0999999999835;-33.49
1528.1199999999835;-33.6
1528.1399999999835;-33.73
1528.1599999999835;-33.83
1528.1799999999835;-33.91
1528.1999999999834;-33.97
1528.2199999999834;-34.12
1528.2399999999834;-34.32
1528.2599999999834;-34.5
1528.2799999999834;-34.69
1528.2999999999834;-34.92
1528.3199999999833;-35.19
1528.3399999999833;-35.4
1528.3599999999833;-35.63
1528.3799999999833;-35.86
1528.3999999999833;-36.16
1528.4199999999832;-36.58
1528.4399999999832;-37.05
1528.4599999999832;-37.55
1528.4799999999832;-38.07
1528.4999999999832;-38.66
1528.5199999999832;-39.38
1528.5399999999831;-40.11
1528.5599999999831;-40.93
1528.579999999983;-41.88
1528.599999999983;-43.07
1528.619999999983;-44.13
1528.639999999983;-45.71
1528.659999999983;-47.67
1528.679999999983;-46.81
1528.699999999983;-46.33
1528.719999999983;-46.1
1528.739999999983;-45.52
1528.759999999983;-44.08
1528.779999999983;-42.9
1528.799999999983;-41.96
1528.8199999999829;-41.03
1528.8399999999829;-40.22
1528.8599999999828;-39.48
1528.8799999999828;-38.79
1528.8999999999828;-38.15
1528.9199999999828;-37.56
1528.9399999999828;-37.06
1528.9599999999828;-36.57
1528.9799999999827;-36.12
1528.9999999999827;-35.82
1529.0199999999827;-35.51
1529.0399999999827;-35.21
1529.0599999999827;-34.98
1529.0799999999826;-34.76
1529.0999999999826;-34.54
1529.1199999999826;-34.33
1529.1399999999826;-34.15
1529.1599999999826;-33.97
1529.1799999999826;-33.71
1529.1999999999825;-33.58
1529.2199999999825;-33.47
1529.2399999999825;-33.37
1529.2599999999825;-33.32
1529.2799999999825;-33.26
1529.2999999999824;-33.22
1529.3199999999824;-33.2
1529.3399999999824;-33.18
1529.3599999999824;-33.15
1529.3799999999824;-33.12
1529.3999999999824;-33.09
1529.4199999999823;-33.06
1529.4399999999823;-33.06
1529.4599999999823;-33.05
1529.4799999999823;-33.05
1529.4999999999823;-33.07
1529.5199999999822;-33.12
1529.5399999999822;-33.18
1529.5599999999822;-33.23
1529.5799999999822;-33.27
1529.5999999999822;-33.3
1529.6199999999822;-33.36
1529.6399999999821;-33.44
1529.6599999999821;-33.53
1529.679999999982;-33.65
1529.699999999982;-33.76
1529.719999999982;-33.89
1529.739999999982;-34.04
1529.759999999982;-34.17
1529.779999999982;-34.29
1529.799999999982;-34.48
1529.819999999982;-34.67
1529.839999999982;-34.85
1529.859999999982;-35.08
1529.879999999982;-35.34
1529.899999999982;-35.62
1529.9199999999819;-35.88
1529.9399999999819;-36.17
1529.9599999999818;-36.55
1529.9799999999818;-37.1
1529.9999999999818;-37.59
1530.0199999999818;-38.09
1530.0399999999818;-38.56
1530.0599999999818;-39.27
1530.0799999999817;-40.14
1530.0999999999817;-41.0
1530.1199999999817;-41.8
1530.1399999999817;-42.78
1530.1599999999817;-44.13
1530.1799999999816;-45.39
1530.1999999999816;-46.6
1530.2199999999816;-47.78
1530.2399999999816;-47.97
1530.2599999999816;-47.34
1530.2799999999816;-46.36
1530.2999999999815;-45.19
1530.3199999999815;-43.92
1530.3399999999815;-42.83
1530.3599999999815;-41.79
1530.3799999999815;-40.85
1530.3999999999814;-40.03
1530.4199999999814;-39.32
1530.4399999999814;-38.68
1530.4599999999814;-38.17
1530.4799999999814;-37.68
1530.4999999999814;-37.13
1530.5199999999813;-36.55
1530.5399999999813;-36.18
1530.5599999999813;-35.87
1530.5799999999813;-35.59
1530.5999999999813;-35.31
1530.6199999999812;-35.06
1530.6399999999812;-34.87
1530.6599999999812;-34.71
1530.6799999999812;-34.55
1530.6999999999812;-34.43
1530.7199999999812;-34.25
1530.7399999999811;-34.11
1530.7599999999811;-34.05
1530.779999999981;-33.93
1530.799999999981;-33.82
1530.819999999981;-33.71
1530.839999999981;-33.61
1530.859999999981;-33.54
1530.879999999981;-33.51
1530.899999999981;-33.51
1530.919999999981;-33.5
1530.939999999981;-33.48
1530.959999999981;-33.47
1530.979999999981;-33.45
1530.999999999981;-33.41
1531.0199999999809;-33.43
1531.0399999999809;-33.47
1531.0599999999808;-33.52
1531.0799999999808;-33.52
1531.0999999999808;-33.55
1531.1199999999808;-33.62
1531.1399999999808;-33.69
1531.1599999999808;-33.78
1531.1799999999807;-33.89
1531.1999999999807;-33.99
1531.2199999999807;-34.07
1531.2399999999807;-34.16
1531.2599999999807;-34.32
1531.2799999999806;-34.49
1531.2999999999806;-34.65
1531.3199999999806;-34.78
1531.3399999999806;-34.92
1531.3599999999806;-35.09
1531.3799999999806;-35.25
1531.3999999999805;-35.46
1531.4199999999805;-35.77
1531.4399999999805;-36.01
1531.4599999999805;-36.3
1531.4799999999805;-36.72
1531.4999999999804;-37.19
1531.5199999999804;-37.66
1531.5399999999804;-38.1
1531.5599999999804;-38.54
1531.5799999999804;-39.1
1531.5999999999804;-40.0
1531.6199999999803;-40.76
1531.6399999999803;-41.53
1531.6599999999803;-42.51
1531.6799999999803;-43.34
1531.6999999999803;-44.33
1531.7199999999802;-45.9
1531.7399999999802;-46.67
1531.7599999999802;-47.47
1531.7799999999802;-49.06
1531.7999999999802;-48.38
1531.8199999999802;-47.35
1531.8399999999801;-47.4
1531.8599999999801;-46.14
1531.87999999998;-44.41
1531.89999999998;-43.21
1531.91999999998;-42.2
1531.93999999998;-41.27
1531.95999999998;-40.62
1531.97999999998;-39.81
1531.99999999998;-39.02
1532.01999999998;-38.56
1532.03999999998;-38.08
1532.05999999998;-37.63
1532.07999999998;-37.24
1532.09999999998;-36.79
1532.1199999999799;-36.4
1532.1399999999799;-36.17
1532.1599999999798;-35.92
1532.1799999999798;-35.69
1532.1999999999798;-35.52
1532.2199999999798;-35.42
1532.2399999999798;-35.29
1532.2599999999798;-35.11
1532.2799999999797;-34.98
1532.2999999999797;-34.88
1532.3199999999797;-34.81
1532.3399999999797;-34.71
1532.3599999999797;-34.62
1532.3799999999796;-34.55
1532.3999999999796;-34.41
1532.4199999999796;-34.33
1532.4399999999796;-34.31
1532.4599999999796;-34.33
1532.4799999999796;-34.34
1532.4999999999795;-34.33
1532.5199999999795;-34.25
1532.5399999999795;-34.26
1532.5599999999795;-34.29
1532.5799999999795;-34.32
1532.5999999999794;-34.37
1532.6199999999794;-34.41
1532.6399999999794;-34.42
1532.6599999999794;-34.46
1532.6799999999794;-34.52
1532.6999999999794;-34.58
1532.7199999999793;-34.69
1532.7399999999793;-34.78
1532.7599999999793;-34.83
1532.7799999999793;-34.94
1532.7999999999793;-35.06
1532.8199999999792;-35.19
1532.8399999999792;-35.38
1532.8599999999792;-35.53
1532.8799999999792;-35.67
1532.8999999999792;-35.86
1532.9199999999792;-36.04
1532.9399999999791;-36.24
1532.9599999999791;-36.59
1532.979999999979;-36.93
1532.999999999979;-37.28
1533.019999999979;-37.73
1533.039999999979;-38.18
1533.059999999979;-38.63
1533.079999999979;-39.11
1533.099999999979;-39.51
1533.119999999979;-39.94
1533.139999999979;-40.49
1533.159999999979;-41.19
1533.179999999979;-41.97
1533.199999999979;-42.86
1533.2199999999789;-43.62
1533.2399999999789;-44.53
1533.2599999999788;-45.61
1533.2799999999788;-45.71
1533.2999999999788;-45.82
1533.3199999999788;-45.9
1533.3399999999788;-45.81
1533.3599999999788;-45.25
1533.3799999999787;-44.3
1533.3999999999787;-43.83
1533.4199999999787;-43.23
1533.4399999999787;-42.6
1533.4599999999787;-41.77
1533.4799999999786;-41.2
1533.4999999999786;-40.73
1533.5199999999786;-40.15
1533.5399999999786;-39.61
1533.5599999999786;-39.11
1533.5799999999786;-38.75
1533.5999999999785;-38.39
1533.6199999999785;-38.07
1533.6399999999785;-37.81
1533.6599999999785;-37.5
1533.6799999999785;-37.21
1533.6999999999784;-36.96
1533.7199999999784;-36.76
1533.7399999999784;-36.57
1533.7599999999784;-36.38
1533.7799999999784;-36.2
1533.7999999999784;-36.06
1533.8199999999783;-35.95
1533.8399999999783;-35.89
1533.8599999999783;-35.82
1533.8799999999783;-35.75
1533.8999999999783;-35.65
1533.9199999999782;-35.57
1533.9399999999782;-35.51
1533.9599999999782;-35.47
1533.9799999999782;-35.41
1533.9999999999782;-35.38
1534.0199999999782;-35.4
1534.0399999999781;-35.37
1534.0599999999781;-35.39
1534.079999999978;-35.43
1534.099999999978;-35.46
1534.119999999978;-35.47
1534.139999999978;-35.48
1534.159999999978;-35.51
1534.179999999978;-35.59
1534.199999999978;-35.7
1534.219999999978;-35.81
1534.239999999978;-35.85
1534.259999999978;-35.91
1534.279999999978;-35.98
1534.299999999978;-36.06
1534.3199999999779;-36.16
1534.3399999999779;-36.29
1534.3599999999778;-36.44
1534.3799999999778;-36.75
1534.3999999999778;-37.08
1534.4199999999778;-37.39
1534.4399999999778;-37.57
1534.4599999999778;-37.85
1534.4799999999777;-38.25
1534.4999999999777;-38.54
1534.5199999999777;-38.82
1534.5399999999777;-39.11
1534.5599999999777;-39.48
1534.5799999999776;-39.92
1534.5999999999776;-40.36
1534.6199999999776;-40.73
1534.6399999999776;-41.06
1534.6599999999776;-41.34
1534.6799999999776;-41.57
1534.6999999999775;-41.87
1534.7199999999775;-42.02
1534.7399999999775;-42.11
1534.7599999999775;-42.43
1534.7799999999775;-42.35
1534.7999999999774;-42.23
1534.8199999999774;-42.34
1534.8399999999774;-41.98
1534.8599999999774;-41.63
1534.8799999999774;-41.53
1534.8999999999774;-41.0
1534.9199999999773;-40.52
1534.9399999999773;-40.22
1534.9599999999773;-39.72
1534.9799999999773;-39.36
1534.9999999999773;-39.07
1535.0199999999772;-38.83
1535.0399999999772;-38.67
1535.0599999999772;-38.49
1535.0799999999772;-38.18
1535.0999999999772;-38.03
1535.1199999999772;-37.83
1535.1399999999771;-37.45
1535.1599999999771;-37.32
1535.179999999977;-37.21
1535.199999999977;-37.07
1535.219999999977;-36.96
1535.239999999977;-36.86
1535.259999999977;-36.77
1535.279999999977;-36.66
1535.299999999977;-36.53
1535.319999999977;-36.41
1535.339999999977;-36.36
1535.359999999977;-36.27
1535.379999999977;-36.19
1535.399999999977;-36.21
1535.4199999999769;-36.19
1535.4399999999769;-36.17
1535.4599999999768;-36.21
1535.4799999999768;-36.23
1535.4999999999768;-36.25
1535.5199999999768;-36.29
1535.5399999999768;-36.33
1535.5599999999768;-36.41
1535.5799999999767;-36.53
1535.5999999999767;-36.58
1535.6199999999767;-36.66
1535.6399999999767;-36.78
1535.6599999999767;-36.92
1535.6799999999766;-37.07
1535.6999999999766;-37.21
1535.7199999999766;-37.38
1535.7399999999766;-37.58
1535.7599999999766;-37.79
1535.7799999999766;-37.99
1535.7999999999765;-38.21
1535.8199999999765;-38.45
1535.8399999999765;-38.67
1535.8599999999765;-38.85
1535.8799999999765;-39.07
1535.8999999999764;-39.4
1535.9199999999764;-39.77
1535.9399999999764;-40.16
1535.9599999999764;-40.43
1535.9799999999764;-40.91
1535.9999999999764;-41.22
1536.0199999999763;-41.28
1536.0399999999763;-41.62
1536.0599999999763;-41.83
1536.0799999999763;-41.86
1536.0999999999763;-41.88
1536.1199999999762;-41.66
1536.1399999999762;-41.32
1536.1599999999762;-41.27
1536.1799999999762;-41.2
1536.1999999999762;-41.04
1536.2199999999762;-40.69
1536.2399999999761;-40.38
1536.2599999999761;-40.03
1536.279999999976;-39.53
1536.299999999976;-39.29
1536.319999999976;-39.1
1536.339999999976;-38.8
1536.359999999976;-38.5
1536.379999999976;-38.21
1536.399999999976;-37.93
1536.419999999976;-37.58
1536.439999999976;-37.34
1536.459999999976;-37.22
1536.479999999976;-37.0
1536.499999999976;-36.73
1536.5199999999759;-36.43
1536.5399999999759;-36.24
1536.5599999999758;-36.09
1536.5799999999758;-35.98
1536.5999999999758;-35.86
1536.6199999999758;-35.77
1536.6399999999758;-35.67
1536.6599999999758;-35.6
1536.6799999999757;-35.59
1536.6999999999757;-35.57
1536.7199999999757;-35.53
1536.7399999999757;-35.51
1536.7599999999757;-35.49
1536.7799999999756;-35.45
1536.7999999999756;-35.46
1536.8199999999756;-35.51
1536.8399999999756;-35.49
1536.8599999999756;-35.5
1536.8799999999756;-35.54
1536.8999999999755;-35.58
1536.9199999999755;-35.65
1536.9399999999755;-35.77
1536.9599999999755;-35.82
1536.9799999999755;-35.87
1536.9999999999754;-35.98
1537.0199999999754;-36.11
1537.0399999999754;-36.25
1537.0599999999754;-36.38
1537.0799999999754;-36.59
1537.0999999999754;-36.83
1537.1199999999753;-37.0
1537.1399999999753;-37.23
1537.1599999999753;-37.49
1537.1799999999753;-37.81
1537.1999999999753;-38.12
1537.2199999999752;-38.38
1537.2399999999752;-38.71
1537.2599999999752;-39.09
1537.2799999999752;-39.55
1537.2999999999752;-40.15
1537.3199999999752;-40.75
1537.3399999999751;-41.27
1537.3599999999751;-41.87
1537.379999999975;-42.59
1537.399999999975;-43.54
1537.419999999975;-44.54
1537.439999999975;-45.51
1537.459999999975;-46.2
1537.479999999975;-46.78
1537.499999999975;-46.97
1537.519999999975;-45.9
1537.539999999975;-45.03
1537.559999999975;-44.49
1537.579999999975;-44.18
1537.599999999975;-43.53
1537.6199999999749;-42.52
1537.6399999999749;-41.78
1537.6599999999748;-41.09
1537.6799999999748;-40.51
1537.6999999999748;-39.92
1537.7199999999748;-39.35
1537.7399999999748;-38.86
1537.7599999999748;-38.44
1537.7799999999747;-38.05
1537.7999999999747;-37.7
1537.8199999999747;-37.31
1537.8399999999747;-36.81
1537.8599999999747;-36.52
1537.8799999999746;-36.24
1537.8999999999746;-35.94
1537.9199999999746;-35.71
1537.9399999999746;-35.49
1537.9599999999746;-35.26
1537.9799999999746;-35.11
1537.9999999999745;-34.97
1538.0199999999745;-34.74
1538.0399999999745;-34.58
1538.0599999999745;-34.47
1538.0799999999745;-34.35
1538.0999999999744;-34.25
1538.1199999999744;-34.16
1538.1399999999744;-34.15
1538.1599999999744;-34.11
1538.1799999999744;-34.04
1538.1999999999744;-34.01
1538.2199999999743;-33.99
1538.2399999999743;-34.0
1538.2599999999743;-33.99
1538.2799999999743;-34.0
1538.2999999999743;-34.06
1538.3199999999742;-34.09
1538.3399999999742;-34.13
1538.3599999999742;-34.19
1538.3799999999742;-34.26
1538.3999999999742;-34.38
1538.4199999999742;-34.48
1538.4399999999741;-34.58
1538.4599999999741;-34.65
1538.479999999974;-34.76
1538.499999999974;-34.92
1538.519999999974;-35.05
1538.539999999974;-35.15
1538.559999999974;-35.27
1538.579999999974;-35.41
1538.599999999974;-35.59
1538.619999999974;-35.78
1538.639999999974;-35.96
1538.659999999974;-36.19
1538.679999999974;-36.49
1538.699999999974;-36.87
1538.7199999999739;-37.37
1538.7399999999739;-37.89
1538.7599999999738;-38.36
1538.7799999999738;-38.87
1538.7999999999738;-39.43
1538.8199999999738;-40.32
1538.8399999999738;-41.21
1538.8599999999738;-41.95
1538.8799999999737;-43.09
1538.8999999999737;-44.52
1538.9199999999737;-45.58
1538.9399999999737;-46.91
1538.9599999999737;-48.76
1538.9799999999736;-49.27
1538.9999999999736;-49.6
1539.0199999999736;-48.81
1539.0399999999736;-47.3
1539.0599999999736;-45.47
1539.0799999999736;-44.45
1539.0999999999735;-43.53
1539.1199999999735;-42.42
1539.1399999999735;-41.42
1539.1599999999735;-40.64
1539.1799999999735;-39.8
1539.1999999999734;-39.03
1539.2199999999734;-38.49
1539.2399999999734;-37.99
1539.2599999999734;-37.5
1539.2799999999734;-36.97
1539.2999999999734;-36.49
1539.3199999999733;-36.15
1539.3399999999733;-35.85
1539.3599999999733;-35.58
1539.3799999999733;-35.31
1539.3999999999733;-35.05
1539.4199999999732;-34.83
1539.4399999999732;-34.62
1539.4599999999732;-34.4
1539.4799999999732;-34.16
1539.4999999999732;-33.97
1539.5199999999732;-33.8
1539.5399999999731;-33.65
1539.5599999999731;-33.53
1539.579999999973;-33.43
1539.599999999973;-33.34
1539.619999999973;-33.28
1539.639999999973;-33.24
1539.659999999973;-33.2
1539.679999999973;-33.18
1539.699999999973;-33.16
1539.719999999973;-33.16
1539.739999999973;-33.17
1539.759999999973;-33.16
1539.779999999973;-33.15
1539.799999999973;-33.17
1539.8199999999729;-33.22
1539.8399999999729;-33.26
1539.8599999999728;-33.3
1539.8799999999728;-33.35
1539.8999999999728;-33.39
1539.9199999999728;-33.44
1539.9399999999728;-33.53
1539.9599999999728;-33.62
1539.9799999999727;-33.72
1539.9999999999727;-33.85
1540.0199999999727;-33.99
1540.0399999999727;-34.11
1540.0599999999727;-34.23
1540.0799999999726;-34.4
1540.0999999999726;-34.56
1540.1199999999726;-34.71
1540.1399999999726;-34.9
1540.1599999999726;-35.11
1540.1799999999726;-35.35
1540.1999999999725;-35.59
1540.2199999999725;-35.84
1540.2399999999725;-36.13
1540.2599999999725;-36.45
1540.2799999999725;-36.9
1540.2999999999724;-37.4
1540.3199999999724;-37.96
1540.3399999999724;-38.53
1540.3599999999724;-39.15
1540.3799999999724;-39.99
1540.3999999999724;-40.86
1540.4199999999723;-41.8
1540.4399999999723;-43.23
1540.4599999999723;-45.24
1540.4799999999723;-45.56
1540.4999999999723;-45.38
1540.5199999999722;-45.95
1540.5399999999722;-46.17
1540.5599999999722;-45.95
1540.5799999999722;-45.13
1540.5999999999722;-44.11
1540.6199999999722;-43.23
1540.6399999999721;-42.3
1540.6599999999721;-41.35
1540.679999999972;-40.61
1540.699999999972;-39.89
1540.719999999972;-39.12
1540.739999999972;-38.45
1540.759999999972;-37.98
1540.779999999972;-37.49
1540.799999999972;-36.96
1540.819999999972;-36.46
1540.839999999972;-36.02
1540.859999999972;-35.73
1540.879999999972;-35.45
1540.899999999972;-35.16
1540.9199999999719;-34.93
1540.9399999999719;-34.71
1540.9599999999718;-34.5
1540.9799999999718;-34.3
1540.9999999999718;-34.09
1541.0199999999718;-33.94
1541.0399999999718;-33.81
1541.0599999999718;-33.66
1541.0799999999717;-33.53
1541.0999999999717;-33.43
1541.1199999999717;-33.34
1541.1399999999717;-33.25
1541.1599999999717;-33.2
1541.1799999999716;-33.17
1541.1999999999716;-33.13
1541.2199999999716;-33.11
1541.2399999999716;-33.11
1541.2599999999716;-33.1
1541.2799999999716;-33.1
1541.2999999999715;-33.14
1541.3199999999715;-33.17
1541.3399999999715;-33.18
1541.3599999999715;-33.2
1541.3799999999715;-33.22
1541.3999999999714;-33.21
1541.4199999999714;-33.22
1541.4399999999714;-33.26
1541.4599999999714;-33.33
1541.4799999999714;-33.41
1541.4999999999714;-33.51
1541.5199999999713;-33.6
1541.5399999999713;-33.7
1541.5599999999713;-33.8
1541.5799999999713;-33.93
1541.5999999999713;-34.07
1541.6199999999712;-34.2
1541.6399999999712;-34.38
1541.6599999999712;-34.54
1541.6799999999712;-34.68
1541.6999999999712;-34.89
1541.7199999999712;-35.14
1541.7399999999711;-35.37
1541.7599999999711;-35.63
1541.779999999971;-35.95
1541.799999999971;-36.27
1541.819999999971;-36.6
1541.839999999971;-37.06
1541.859999999971;-37.56
1541.879999999971;-38.19
1541.899999999971;-38.8
1541.919999999971;-39.37
1541.939999999971;-40.09
1541.959999999971;-40.86
1541.979999999971;-41.98
1541.999999999971;-43.05
1542.0199999999709;-43.99
1542.0399999999709;-45.35
1542.0599999999708;-47.06
1542.0799999999708;-47.62
1542.0999999999708;-47.87
1542.1199999999708;-47.47
1542.1399999999708;-46.64
1542.1599999999708;-45.21
1542.1799999999707;-43.96
1542.1999999999707;-42.91
1542.2199999999707;-41.91
1542.2399999999707;-40.99
1542.2599999999707;-40.21
1542.2799999999706;-39.44
1542.2999999999706;-38.75
1542.3199999999706;-38.23
1542.3399999999706;-37.71
1542.3599999999706;-37.23
1542.3799999999706;-36.78
1542.3999999999705;-36.37
1542.4199999999705;-36.04
1542.4399999999705;-35.74
1542.4599999999705;-35.49
1542.4799999999705;-35.23
1542.4999999999704;-34.96
1542.5199999999704;-34.73
1542.5399999999704;-34.52
1542.5599999999704;-34.39
1542.5799999999704;-34.28
1542.5999999999704;-34.17
1542.6199999999703;-34.04
1542.6399999999703;-33.9
1542.6599999999703;-33.82
1542.6799999999703;-33.73
1542.6999999999703;-33.64
1542.7199999999702;-33.55
1542.7399999999702;-33.5
1542.7599999999702;-33.48
1542.7799999999702;-33.46
1542.7999999999702;-33.42
1542.8199999999702;-33.4
1542.8399999999701;-33.4
1542.8599999999701;-33.42
1542.87999999997;-33.44
1542.89999999997;-33.43
1542.91999999997;-33.42
1542.93999999997;-33.49
1542.95999999997;-33.55
1542.97999999997;-33.6
1542.99999999997;-33.66
1543.01999999997;-33.72
1543.03999999997;-33.81
1543.05999999997;-33.91
1543.07999999997;-33.98
1543.09999999997;-34.05
1543.1199999999699;-34.13
1543.1399999999699;-34.31
1543.1599999999698;-34.48
1543.1799999999698;-34.6
1543.1999999999698;-34.75
1543.2199999999698;-34.92
1543.2399999999698;-35.09
1543.2599999999698;-35.25
1543.2799999999697;-35.45
1543.2999999999697;-35.67
1543.3199999999697;-35.88
1543.3399999999697;-36.18
1543.3599999999697;-36.55
1543.3799999999696;-36.98
1543.3999999999696;-37.42
1543.4199999999696;-37.87
1543.4399999999696;-38.32
1543.4599999999696;-38.81
1543.4799999999696;-39.52
1543.4999999999695;-40.29
1543.5199999999695;-41.13
1543.5399999999695;-42.03
1543.5599999999695;-43.03
1543.5799999999695;-44.13
1543.5999999999694;-45.13
1543.6199999999694;-46.32
1543.6399999999694;-47.34
1543.6599999999694;-47.91
1543.6799999999694;-47.73
1543.6999999999694;-47.36
1543.7199999999693;-46.19
1543.7399999999693;-44.96
1543.7599999999693;-43.71
1543.7799999999693;-42.7
1543.7999999999693;-41.88
1543.8199999999692;-41.22
1543.8399999999692;-40.54
1543.8599999999692;-39.65
1543.8799999999692;-38.98
1543.8999999999692;-38.52
1543.9199999999691;-38.15
1543.9399999999691;-37.73
1543.959999999969;-37.23
1543.979999999969;-36.77
1543.999999999969;-36.36
1544.019999999969;-36.12
1544.039999999969;-35.92
1544.059999999969;-35.73
1544.079999999969;-35.54
1544.099999999969;-35.36
1544.119999999969;-35.2
1544.139999999969;-35.06
1544.159999999969;-34.95
1544.179999999969;-34.84
1544.199999999969;-34.74
1544.2199999999689;-34.65
1544.2399999999689;-34.57
1544.2599999999688;-34.49
1544.2799999999688;-34.41
1544.2999999999688;-34.37
1544.3199999999688;-34.32
1544.3399999999688;-34.25
1544.3599999999687;-34.22
1544.3799999999687;-34.21
1544.3999999999687;-34.21
1544.4199999999687;-34.19
1544.4399999999687;-34.17
1544.4599999999687;-34.21
1544.4799999999686;-34.27
1544.4999999999686;-34.32
1544.5199999999686;-34.36
1544.5399999999686;-34.37
1544.5599999999686;-34.42
1544.5799999999685;-34.51
1544.5999999999685;-34.59
1544.6199999999685;-34.67
1544.6399999999685;-34.75
1544.6599999999685;-34.84
1544.6799999999685;-34.92
1544.6999999999684;-35.03
1544.7199999999684;-35.13
1544.7399999999684;-35.27
1544.7599999999684;-35.38
1544.7799999999684;-35.46
1544.7999999999683;-35.65
1544.8199999999683;-35.86
1544.8399999999683;-36.05
1544.8599999999683;-36.28
1544.8799999999683;-36.56
1544.8999999999683;-36.99
1544.9199999999682;-37.46
1544.9399999999682;-37.9
1544.9599999999682;-38.35
1544.9799999999682;-38.78
1544.9999999999682;-39.25
1545.0199999999681;-39.73
1545.0399999999681;-40.56
1545.059999999968;-41.34
1545.079999999968;-41.98
1545.099999999968;-42.7
1545.119999999968;-43.5
1545.139999999968;-44.32
1545.159999999968;-45.44
1545.179999999968;-47.33
1545.199999999968;-47.89
1545.219999999968;-47.55
1545.239999999968;-46.69
1545.259999999968;-45.69
1545.279999999968;-44.95
1545.299999999968;-44.34
1545.3199999999679;-43.73
1545.3399999999679;-43.04
1545.3599999999678;-42.38
1545.3799999999678;-41.58
1545.3999999999678;-40.86
1545.4199999999678;-40.23
1545.4399999999678;-39.61
1545.4599999999677;-39.09
1545.4799999999677;-38.71
1545.4999999999677;-38.38
1545.5199999999677;-38.12
1545.5399999999677;-37.85
1545.5599999999677;-37.58
1545.5799999999676;-37.3
1545.5999999999676;-37.02
1545.6199999999676;-36.75
1545.6399999999676;-36.54
1545.6599999999676;-36.39
1545.6799999999675;-36.21
1545.6999999999675;-36.06
1545.7199999999675;-35.98
1545.7399999999675;-35.9
1545.7599999999675;-35.82
1545.7799999999675;-35.7
1545.7999999999674;-35.59
1545.8199999999674;-35.55
1545.8399999999674;-35.52
1545.8599999999674;-35.5
1545.8799999999674;-35.44
1545.8999999999673;-35.37
1545.9199999999673;-35.36
1545.9399999999673;-35.36
1545.9599999999673;-35.37
1545.9799999999673;-35.4
1545.9999999999673;-35.44
1546.0199999999672;-35.42
1546.0399999999672;-35.42
1546.0599999999672;-35.47
1546.0799999999672;-35.5
1546.0999999999672;-35.51
1546.1199999999671;-35.56
1546.1399999999671;-35.63
1546.159999999967;-35.71
1546.179999999967;-35.79
1546.199999999967;-35.88
1546.219999999967;-35.95
1546.239999999967;-36.03
1546.259999999967;-36.2
1546.279999999967;-36.37
1546.299999999967;-36.53
1546.319999999967;-36.75
1546.339999999967;-36.99
1546.359999999967;-37.3
1546.379999999967;-37.6
1546.399999999967;-37.87
1546.4199999999669;-38.15
1546.4399999999669;-38.44
1546.4599999999668;-38.71
1546.4799999999668;-39.0
1546.4999999999668;-39.42
1546.5199999999668;-40.0
1546.5399999999668;-40.72
1546.5599999999667;-41.09
1546.5799999999667;-41.37
1546.5999999999667;-41.64
1546.6199999999667;-41.99
1546.6399999999667;-42.46
1546.6599999999667;-42.77
1546.6799999999666;-42.99
1546.6999999999666;-43.08
1546.7199999999666;-43.03
1546.7399999999666;-42.86
1546.7599999999666;-42.68
1546.7799999999665;-42.39
1546.7999999999665;-41.93
1546.8199999999665;-41.47
1546.8399999999665;-41.11
1546.8599999999665;-40.79
1546.8799999999665;-40.56
1546.8999999999664;-40.12
1546.9199999999664;-39.59
1546.9399999999664;-39.29
1546.9599999999664;-39.01
1546.9799999999664;-38.77
1546.9999999999663;-38.52
1547.0199999999663;-38.26
1547.0399999999663;-38.02
1547.0599999999663;-37.8
1547.0799999999663;-37.74
1547.0999999999663;-37.6
1547.1199999999662;-37.37
1547.1399999999662;-37.22
1547.1599999999662;-37.13
1547.1799999999662;-37.01
1547.1999999999662;-36.9
1547.2199999999661;-36.78
1547.2399999999661;-36.66
1547.259999999966;-36.55
1547.279999999966;-36.54
1547.299999999966;-36.56
1547.319999999966;-36.49
1547.339999999966;-36.37
1547.359999999966;-36.24
1547.379999999966;-36.21
1547.399999999966;-36.23
1547.419999999966;-36.27
1547.439999999966;-36.29
1547.459999999966;-36.31
1547.479999999966;-36.39
1547.499999999966;-36.5
1547.5199999999659;-36.48
1547.5399999999659;-36.45
1547.5599999999658;-36.56
1547.5799999999658;-36.7
1547.5999999999658;-36.82
1547.6199999999658;-36.93
1547.6399999999658;-37.06
1547.6599999999657;-37.17
1547.6799999999657;-37.35
1547.6999999999657;-37.6
1547.7199999999657;-37.81
1547.7399999999657;-38.02
1547.7599999999657;-38.25
1547.7799999999656;-38.47
1547.7999999999656;-38.68
1547.8199999999656;-38.97
1547.8399999999656;-39.32
1547.8599999999656;-39.57
1547.8799999999655;-39.85
1547.8999999999655;-40.29
1547.9199999999655;-40.64
1547.9399999999655;-40.8
1547.9599999999655;-41.01
1547.9799999999655;-41.29
1547.9999999999654;-41.45
1548.0199999999654;-41.58
1548.0399999999654;-41.63
1548.0599999999654;-41.71
1548.0799999999654;-41.96
1548.0999999999653;-41.99
1548.1199999999653;-41.7
1548.1399999999653;-41.37
1548.1599999999653;-41.05
1548.1799999999653;-40.84
1548.1999999999653;-40.63
1548.2199999999652;-40.41
1548.2399999999652;-40.15
1548.2599999999652;-39.81
1548.2799999999652;-39.4
1548.2999999999652;-38.97
1548.3199999999651;-38.73
1548.3399999999651;-38.51
1548.359999999965;-38.24
1548.379999999965;-38.0
1548.399999999965;-37.77
1548.419999999965;-37.51
1548.439999999965;-37.24
1548.459999999965;-36.95
1548.479999999965;-36.66
1548.499999999965;-36.57
1548.519999999965;-36.45
1548.539999999965;-36.28
1548.559999999965;-36.16
1548.579999999965;-36.08
1548.599999999965;-36.07
1548.6199999999649;-36.05
1548.6399999999649;-35.98
1548.6599999999648;-35.93
1548.6799999999648;-35.92
1548.6999999999648;-35.89
1548.7199999999648;-35.81
1548.7399999999648;-35.77
1548.7599999999647;-35.75
1548.7799999999647;-35.78
1548.7999999999647;-35.79
1548.8199999999647;-35.85
1548.8399999999647;-35.87
1548.8599999999647;-35.86
1548.8799999999646;-35.91
1548.8999999999646;-35.99
1548.9199999999646;-36.04
1548.9399999999646;-36.1
1548.9599999999646;-36.2
1548.9799999999645;-36.3
1548.9999999999645;-36.4
1549.0199999999645;-36.58
1549.0399999999645;-36.81
1549.0599999999645;-36.95
1549.0799999999645;-37.12
1549.0999999999644;-37.41
1549.1199999999644;-37.66
1549.1399999999644;-37.93
1549.1599999999644;-38.25
1549.1799999999644;-38.57
1549.1999999999643;-38.9
1549.2199999999643;-39.24
1549.2399999999643;-39.73
1549.2599999999643;-40.3
1549.2799999999643;-40.83
1549.2999999999643;-41.43
1549.3199999999642;-42.07
1549.3399999999642;-42.72
1549.3599999999642;-43.4
1549.3799999999642;-43.91
1549.3999999999642;-44.59
1549.4199999999641;-45.62
1549.4399999999641;-45.91
1549.459999999964;-45.72
1549.479999999964;-45.38
1549.499999999964;-44.94
1549.519999999964;-44.54
1549.539999999964;-44.07
1549.559999999964;-43.4
1549.579999999964;-42.74
1549.599999999964;-42.07
1549.619999999964;-41.38
1549.639999999964;-40.66
1549.659999999964;-40.19
1549.679999999964;-39.83
1549.699999999964;-39.32
1549.7199999999639;-38.84
1549.7399999999639;-38.46
1549.7599999999638;-38.06
1549.7799999999638;-37.63
1549.7999999999638;-37.25
1549.8199999999638;-36.95
1549.8399999999638;-36.64
1549.8599999999637;-36.31
1549.8799999999637;-36.12
1549.8999999999637;-35.95
1549.9199999999637;-35.75
1549.9399999999637;-35.55
1549.9599999999637;-35.37
1549.9799999999636;-35.18
1549.9999999999636;-35.0
1550.0199999999636;-34.89
1550.0399999999636;-34.82
1550.0599999999636;-34.71
1550.0799999999635;-34.6
1550.0999999999635;-34.56
1550.1199999999635;-34.54
1550.1399999999635;-34.5
1550.1599999999635;-34.46
1550.1799999999635;-34.41
1550.1999999999634;-34.4
1550.2199999999634;-34.4
1550.2399999999634;-34.42
1550.2599999999634;-34.45
1550.2799999999634;-34.46
1550.2999999999633;-34.48
1550.3199999999633;-34.58
1550.3399999999633;-34.66
1550.3599999999633;-34.7
1550.3799999999633;-34.77
1550.3999999999633;-34.84
1550.4199999999632;-34.92
1550.4399999999632;-35.03
1550.4599999999632;-35.11
1550.4799999999632;-35.2
1550.4999999999632;-35.37
1550.5199999999631;-35.51
1550.5399999999631;-35.59
1550.559999999963;-35.71
1550.579999999963;-35.89
1550.599999999963;-36.09
1550.619999999963;-36.31
1550.639999999963;-36.62
1550.659999999963;-36.91
1550.679999999963;-37.36
1550.699999999963;-37.83
1550.719999999963;-38.24
1550.739999999963;-38.66
1550.759999999963;-39.13
1550.779999999963;-39.83
1550.799999999963;-40.64
1550.8199999999629;-41.51
1550.8399999999629;-42.42
1550.8599999999628;-43.14
1550.8799999999628;-43.98
1550.8999999999628;-45.5
1550.9199999999628;-46.85
1550.9399999999628;-48.01
1550.9599999999627;-48.55
1550.9799999999627;-48.57
1550.9999999999627;-47.5
1551.0199999999627;-45.86
1551.0399999999627;-44.83
1551.0599999999627;-43.94
1551.0799999999626;-43.03
1551.0999999999626;-42.17
1551.1199999999626;-41.37
1551.1399999999626;-40.51
1551.1599999999626;-39.63
1551.1799999999625;-39.03
1551.1999999999625;-38.59
1551.2199999999625;-38.16
1551.2399999999625;-37.72
1551.2599999999625;-37.27
1551.2799999999625;-36.83
1551.2999999999624;-36.48
1551.3199999999624;-36.14
1551.3399999999624;-35.83
1551.3599999999624;-35.53
1551.3799999999624;-35.26
1551.3999999999623;-35.03
1551.4199999999623;-34.83
1551.4399999999623;-34.66
1551.4599999999623;-34.5
1551.4799999999623;-34.32
1551.4999999999623;-34.14
1551.5199999999622;-34.0
1551.5399999999622;-33.86
1551.5599999999622;-33.76
1551.5799999999622;-33.69
1551.5999999999622;-33.65
1551.6199999999621;-33.59
1551.6399999999621;-33.52
1551.659999999962;-33.49
1551.679999999962;-33.48
1551.699999999962;-33.49
1551.719999999962;-33.5
1551.739999999962;-33.47
1551.759999999962;-33.46
1551.779999999962;-33.48
1551.799999999962;-33.51
1551.819999999962;-33.54
1551.839999999962;-33.61
1551.859999999962;-33.7
1551.879999999962;-33.77
1551.899999999962;-33.82
1551.9199999999619;-33.88
1551.9399999999619;-33.95
1551.9599999999618;-34.02
1551.9799999999618;-34.11
1551.9999999999618;-34.23
1552.0199999999618;-34.33
1552.0399999999618;-34.42
1552.0599999999617;-34.56
1552.0799999999617;-34.74
1552.0999999999617;-34.91
1552.1199999999617;-35.08
1552.1399999999617;-35.29
1552.1599999999617;-35.47
1552.1799999999616;-35.64
1552.1999999999616;-35.85
1552.2199999999616;-36.12
1552.2399999999616;-36.49
1552.2599999999616;-36.93
1552.2799999999615;-37.39
1552.2999999999615;-37.85
1552.3199999999615;-38.35
1552.3399999999615;-38.85
1552.3599999999615;-39.44
1552.3799999999615;-40.11
1552.3999999999614;-40.9
1552.4199999999614;-41.72
1552.4399999999614;-42.63
1552.4599999999614;-43.47
1552.4799999999614;-44.15
1552.4999999999613;-44.94
1552.5199999999613;-45.8
1552.5399999999613;-45.65
1552.5599999999613;-45.27
1552.5799999999613;-44.55
1552.5999999999613;-43.72
1552.6199999999612;-42.61
1552.6399999999612;-41.75
1552.6599999999612;-41.36
1552.6799999999612;-40.69
1552.6999999999612;-39.72
1552.7199999999611;-39.04
1552.7399999999611;-38.49
1552.759999999961;-37.92
1552.779999999961;-37.37
1552.799999999961;-36.93
1552.819999999961;-36.51
1552.839999999961;-36.12
1552.859999999961;-35.81
1552.879999999961;-35.6
1552.899999999961;-35.35
1552.919999999961;-35.07
1552.939999999961;-34.87
1552.959999999961;-34.69
1552.979999999961;-34.45
1552.999999999961;-34.24
1553.0199999999609;-34.06
1553.0399999999609;-33.9
1553.0599999999608;-33.77
1553.0799999999608;-33.67
1553.0999999999608;-33.57
1553.1199999999608;-33.49
1553.1399999999608;-33.43
1553.1599999999607;-33.37
1553.1799999999607;-33.31
1553.1999999999607;-33.29
1553.2199999999607;-33.29
1553.2399999999607;-33.28
1553.2599999999607;-33.27
1553.2799999999606;-33.26
1553.2999999999606;-33.25
1553.3199999999606;-33.24
1553.3399999999606;-33.27
1553.3599999999606;-33.32
1553.3799999999605;-33.32
1553.3999999999605;-33.33
1553.4199999999605;-33.37
1553.4399999999605;-33.42
1553.4599999999605;-33.5
1553.4799999999605;-33.58
1553.4999999999604;-33.65
1553.5199999999604;-33.74
1553.5399999999604;-33.83
1553.5599999999604;-33.96
1553.5799999999604;-34.09
1553.5999999999603;-34.25
1553.6199999999603;-34.39
1553.6399999999603;-34.5
1553.6599999999603;-34.63
1553.6799999999603;-34.79
1553.6999999999603;-34.96
1553.7199999999602;-35.13
1553.7399999999602;-35.37
1553.7599999999602;-35.61
1553.7799999999602;-35.85
1553.7999999999602;-36.13
1553.8199999999601;-36.48
1553.8399999999601;-36.88
1553.85999999996;-37.35
1553.87999999996;-37.87
1553.89999999996;-38.41
1553.91999999996;-38.86
1553.93999999996;-39.31
1553.95999999996;-40.03
1553.97999999996;-40.81
1553.99999999996;-41.57
1554.01999999996;-42.36
1554.03999999996;-43.25
1554.05999999996;-44.17
1554.07999999996;-45.11
1554.09999999996;-46.12
1554.1199999999599;-47.13
1554.1399999999599;-46.36
1554.1599999999598;-45.4
1554.1799999999598;-44.73
1554.1999999999598;-43.94
1554.2199999999598;-42.84
1554.2399999999598;-41.83
1554.2599999999597;-40.99
1554.2799999999597;-40.19
1554.2999999999597;-39.43
1554.3199999999597;-38.88
1554.3399999999597;-38.37
1554.3599999999597;-37.88
1554.3799999999596;-37.41
1554.3999999999596;-36.94
1554.4199999999596;-36.51
1554.4399999999596;-36.12
1554.4599999999596;-35.84
1554.4799999999595;-35.59
1554.4999999999595;-35.31
1554.5199999999595;-35.06
1554.5399999999595;-34.92
1554.5599999999595;-34.73
1554.5799999999595;-34.49
1554.5999999999594;-34.36
1554.6199999999594;-34.27
1554.6399999999594;-34.12
1554.6599999999594;-33.96
1554.6799999999594;-33.84
1554.6999999999593;-33.76
1554.7199999999593;-33.72
1554.7399999999593;-33.68
1554.7599999999593;-33.63
1554.7799999999593;-33.57
1554.7999999999593;-33.52
1554.8199999999592;-33.51
1554.8399999999592;-33.49
1554.8599999999592;-33.48
1554.8799999999592;-33.49
1554.8999999999592;-33.51
1554.9199999999591;-33.53
1554.9399999999591;-33.57
1554.959999999959;-33.62
1554.979999999959;-33.67
1554.999999999959;-33.73
1555.019999999959;-33.81
1555.039999999959;-33.9
1555.059999999959;-33.98
1555.079999999959;-34.04
1555.099999999959;-34.15
1555.119999999959;-34.25
1555.139999999959;-34.31
1555.159999999959;-34.41
1555.179999999959;-34.56
1555.199999999959;-34.72
1555.2199999999589;-34.89
1555.2399999999589;-35.04
1555.2599999999588;-35.19
1555.2799999999588;-35.29
1555.2999999999588;-35.43
1555.3199999999588;-35.65
1555.3399999999588;-35.87
1555.3599999999587;-36.08
1555.3799999999587;-36.34
1555.3999999999587;-36.63
1555.4199999999587;-37.1
1555.4399999999587;-37.56
1555.4599999999587;-37.99
1555.4799999999586;-38.42
1555.4999999999586;-38.85
1555.5199999999586;-39.49
1555.5399999999586;-40.27
1555.5599999999586;-41.04
1555.5799999999585;-41.85
1555.5999999999585;-42.94
1555.6199999999585;-44.01
1555.6399999999585;-44.92
1555.6599999999585;-46.03
1555.6799999999585;-47.32
1555.6999999999584;-47.23
1555.7199999999584;-46.9
1555.7399999999584;-46.97
1555.7599999999584;-46.69
1555.7799999999584;-45.14
1555.7999999999583;-43.96
1555.8199999999583;-43.31
1555.8399999999583;-42.39
1555.8599999999583;-41.29
1555.8799999999583;-40.58
1555.8999999999583;-39.91
1555.9199999999582;-39.24
1555.9399999999582;-38.67
1555.9599999999582;-38.24
1555.9799999999582;-37.8
1555.9999999999582;-37.36
1556.0199999999581;-36.95
1556.0399999999581;-36.58
1556.059999999958;-36.27
1556.079999999958;-35.98
1556.099999999958;-35.71
1556.119999999958;-35.52
1556.139999999958;-35.37
1556.159999999958;-35.2
1556.179999999958;-35.04
1556.199999999958;-34.91
1556.219999999958;-34.8
1556.239999999958;-34.71
1556.259999999958;-34.64
1556.279999999958;-34.57
1556.299999999958;-34.52
1556.3199999999579;-34.46
1556.3399999999579;-34.38
1556.3599999999578;-34.32
1556.3799999999578;-34.29
1556.3999999999578;-34.28
1556.4199999999578;-34.27
1556.4399999999578;-34.26
1556.4599999999577;-34.25
1556.4799999999577;-34.27
1556.4999999999577;-34.3
1556.5199999999577;-34.35
1556.5399999999577;-34.38
1556.5599999999577;-34.42
1556.5799999999576;-34.49
1556.5999999999576;-34.54
1556.6199999999576;-34.54
1556.6399999999576;-34.62
1556.6599999999576;-34.74
1556.6799999999575;-34.81
1556.6999999999575;-34.88
1556.7199999999575;-34.98
1556.7399999999575;-35.07
1556.7599999999575;-35.15
1556.7799999999575;-35.24
1556.7999999999574;-35.32
1556.8199999999574;-35.47
1556.8399999999574;-35.63
1556.8599999999574;-35.78
1556.8799999999574;-35.92
1556.8999999999573;-36.05
1556.9199999999573;-36.27
1556.9399999999573;-36.53
1556.9599999999573;-36.85
1556.9799999999573;-37.23
1556.9999999999573;-37.75
1557.0199999999572;-38.14
1557.0399999999572;-38.43
1557.0599999999572;-38.81
1557.0799999999572;-39.25
1557.0999999999572;-39.97
1557.1199999999571;-40.7
1557.1399999999571;-41.43
1557.159999999957;-42.26
1557.179999999957;-43.13
1557.199999999957;-44.34
1557.219999999957;-45.52
1557.239999999957;-46.17
1557.259999999957;-47.06
1557.279999999957;-48.2
1557.299999999957;-48.12
1557.319999999957;-47.65
1557.339999999957;-46.48
1557.359999999957;-45.44
1557.379999999957;-44.7
1557.399999999957;-43.94
1557.4199999999569;-43.08
1557.4399999999569;-42.22
1557.4599999999568;-41.39
1557.4799999999568;-40.66
1557.4999999999568;-39.98
1557.5199999999568;-39.45
1557.5399999999568;-39.09
1557.5599999999567;-38.85
1557.5799999999567;-38.48
1557.5999999999567;-38.11
1557.6199999999567;-37.8
1557.6399999999567;-37.48
1557.6599999999567;-37.13
1557.6799999999566;-36.86
1557.6999999999566;-36.64
1557.7199999999566;-36.49
1557.7399999999566;-36.33
1557.7599999999566;-36.14
1557.7799999999565;-35.99
1557.7999999999565;-35.89
1557.8199999999565;-35.82
1557.8399999999565;-35.77
1557.8599999999565;-35.69
1557.8799999999565;-35.61
1557.8999999999564;-35.59
1557.9199999999564;-35.53
1557.9399999999564;-35.45
1557.9599999999564;-35.42
1557.9799999999564;-35.4
1557.9999999999563;-35.33
1558.0199999999563;-35.31
1558.0399999999563;-35.36
1558.0599999999563;-35.38
1558.0799999999563;-35.35
1558.0999999999563;-35.38
1558.1199999999562;-35.41
1558.1399999999562;-35.43
1558.1599999999562;-35.47
1558.1799999999562;-35.54
1558.1999999999562;-35.58
1558.2199999999561;-35.62
1558.2399999999561;-35.65
1558.259999999956;-35.69
1558.279999999956;-35.8
1558.299999999956;-35.93
1558.319999999956;-36.07
1558.339999999956;-36.14
1558.359999999956;-36.18
1558.379999999956;-36.37
1558.399999999956;-36.6
1558.419999999956;-36.89
1558.439999999956;-37.16
1558.459999999956;-37.41
1558.479999999956;-37.63
1558.499999999956;-37.86
1558.5199999999559;-38.18
1558.5399999999559;-38.52
1558.5599999999558;-38.9
1558.5799999999558;-39.35
1558.5999999999558;-39.83
1558.6199999999558;-40.3
1558.6399999999558;-40.81
1558.6599999999557;-41.32
1558.6799999999557;-41.87
1558.6999999999557;-42.46
1558.7199999999557;-42.99
1558.7399999999557;-43.49
1558.7599999999557;-44.07
1558.7799999999556;-44.46
1558.7999999999556;-44.45
1558.8199999999556;-44.38
1558.8399999999556;-44.27
1558.8599999999556;-44.06
1558.8799999999555;-43.73
1558.8999999999555;-43.14
1558.9199999999555;-42.58
1558.9399999999555;-42.1
1558.9599999999555;-41.67
1558.9799999999555;-41.22
1558.9999999999554;-40.78
1559.0199999999554;-40.32
1559.0399999999554;-39.82
1559.0599999999554;-39.42
1559.0799999999554;-39.12
1559.0999999999553;-38.89
1559.1199999999553;-38.71
1559.1399999999553;-38.53
1559.1599999999553;-38.33
1559.1799999999553;-38.11
1559.1999999999553;-37.91
1559.2199999999552;-37.72
1559.2399999999552;-37.53
1559.2599999999552;-37.35
1559.2799999999552;-37.23
1559.2999999999552;-37.11
1559.3199999999551;-36.96
1559.3399999999551;-36.86
1559.359999999955;-36.81
1559.379999999955;-36.72
1559.399999999955;-36.6
1559.419999999955;-36.55
1559.439999999955;-36.52
1559.459999999955;-36.39
1559.479999999955;-36.28
1559.499999999955;-36.26
1559.519999999955;-36.25
1559.539999999955;-36.25
1559.559999999955;-36.26
1559.579999999955;-36.27
1559.599999999955;-36.34
1559.6199999999549;-36.38
1559.6399999999549;-36.38
1559.6599999999548;-36.42
1559.6799999999548;-36.49
1559.6999999999548;-36.62
1559.7199999999548;-36.75
1559.7399999999548;-36.82
1559.7599999999547;-36.9
1559.7799999999547;-37.06
1559.7999999999547;-37.21
1559.8199999999547;-37.36
1559.8399999999547;-37.55
1559.8599999999547;-37.73
1559.8799999999546;-37.89
1559.8999999999546;-38.11
1559.9199999999546;-38.42
1559.9399999999546;-38.67
1559.9599999999546;-38.88
1559.9799999999545;-39.16
1559.9999999999545;-39.48
1560.0199999999545;-39.8
1560.0399999999545;-40.08
1560.0599999999545;-40.47
1560.0799999999545;-40.88
1560.0999999999544;-41.2
1560.1199999999544;-41.5
1560.1399999999544;-41.86
1560.1599999999544;-42.18
1560.1799999999544;-42.42
1560.1999999999543;-42.52
1560.2199999999543;-42.57
1560.2399999999543;-42.35
1560.2599999999543;-42.25
1560.2799999999543;-42.25
1560.2999999999543;-41.9
1560.3199999999542;-41.49
1560.3399999999542;-41.41
1560.3599999999542;-41.26
1560.3799999999542;-40.85
1560.3999999999542;-40.44
1560.4199999999541;-39.99
1560.4399999999541;-39.63
1560.459999999954;-39.3
1560.479999999954;-38.97
1560.499999999954;-38.69
1560.519999999954;-38.48
1560.539999999954;-38.27
1560.559999999954;-38.04
1560.579999999954;-37.82
1560.599999999954;-37.62
1560.619999999954;-37.4
1560.639999999954;-37.18
1560.659999999954;-36.95
1560.679999999954;-36.77
1560.699999999954;-36.65
1560.7199999999539;-36.54
1560.7399999999539;-36.43
1560.7599999999538;-36.35
1560.7799999999538;-36.27
1560.7999999999538;-36.22
1560.8199999999538;-36.16
1560.8399999999538;-36.13
1560.8599999999537;-36.12
1560.8799999999537;-36.14
1560.8999999999537;-36.12
1560.9199999999537;-36.1
1560.9399999999537;-36.11
1560.9599999999537;-36.12
1560.9799999999536;-36.12
1560.9999999999536;-36.13
1561.0199999999536;-36.16
1561.0399999999536;-36.21
1561.0599999999536;-36.27
1561.0799999999535;-36.34
1561.0999999999535;-36.4
1561.1199999999535;-36.52
1561.1399999999535;-36.68
1561.1599999999535;-36.74
1561.1799999999535;-36.82
1561.1999999999534;-37.08
1561.2199999999534;-37.35
1561.2399999999534;-37.53
1561.2599999999534;-37.71
1561.2799999999534;-37.9
1561.2999999999533;-38.12
1561.3199999999533;-38.33
1561.3399999999533;-38.62
1561.3599999999533;-38.92
1561.3799999999533;-39.25
1561.3999999999533;-39.66
1561.4199999999532;-40.24
1561.4399999999532;-40.77
1561.4599999999532;-41.26
1561.4799999999532;-41.87
1561.4999999999532;-42.56
1561.5199999999531;-43.12
1561.5399999999531;-43.6
1561.559999999953;-44.56
1561.579999999953;-45.46
1561.599999999953;-45.07
1561.619999999953;-44.85
1561.639999999953;-45.31
1561.659999999953;-45.29
1561.679999999953;-44.67
1561.699999999953;-43.89
1561.719999999953;-43.09
1561.739999999953;-42.58
1561.759999999953;-42.07
1561.779999999953;-41.49
1561.799999999953;-41.03
1561.8199999999529;-40.73
1561.8399999999529;-40.26
1561.8599999999528;-39.58
1561.8799999999528;-39.1
1561.8999999999528;-38.8
1561.9199999999528;-38.45
1561.9399999999528;-38.08
1561.9599999999527;-37.73
1561.9799999999527;-37.39
1561.9999999999527;-37.09
1562.0199999999527;-36.79
1562.0399999999527;-36.5
1562.0599999999527;-36.26
1562.0799999999526;-36.07
1562.0999999999526;-35.89
1562.1199999999526;-35.74
1562.1399999999526;-35.64
1562.1599999999526;-35.55
1562.1799999999525;-35.39
1562.1999999999525;-35.26
1562.2199999999525;-35.17
1562.2399999999525;-35.08
1562.2599999999525;-35.02
1562.2799999999525;-34.97
1562.2999999999524;-34.93
1562.3199999999524;-34.85
1562.3399999999524;-34.76
1562.3599999999524;-34.75
1562.3799999999524;-34.75
1562.3999999999523;-34.76
1562.4199999999523;-34.78
1562.4399999999523;-34.77
1562.4599999999523;-34.77
1562.4799999999523;-34.85
1562.4999999999523;-34.93
1562.5199999999522;-35.01
1562.5399999999522;-35.05
1562.5599999999522;-35.09
1562.5799999999522;-35.16
1562.5999999999522;-35.24
1562.6199999999521;-35.35
1562.6399999999521;-35.46
1562.659999999952;-35.55
1562.679999999952;-35.65
1562.699999999952;-35.78
1562.719999999952;-35.93
1562.739999999952;-36.12
1562.759999999952;-36.35
1562.779999999952;-36.61
1562.799999999952;-36.9
1562.819999999952;-37.24
1562.839999999952;-37.59
1562.859999999952;-37.95
1562.879999999952;-38.37
1562.899999999952;-38.79
1562.9199999999519;-39.25
1562.9399999999519;-39.8
1562.9599999999518;-40.51
1562.9799999999518;-41.21
1562.9999999999518;-41.98
1563.0199999999518;-43.31
1563.0399999999518;-44.87
1563.0599999999517;-46.03
1563.0799999999517;-47.05
1563.0999999999517;-48.43
1563.1199999999517;-49.65
1563.1399999999517;-49.3
1563.1599999999517;-48.86
1563.1799999999516;-48.18
1563.1999999999516;-47.13
1563.2199999999516;-45.23
1563.2399999999516;-43.94
1563.2599999999516;-43.28
1563.2799999999515;-42.45
1563.2999999999515;-41.55
1563.3199999999515;-40.74
1563.3399999999515;-39.98
1563.3599999999515;-39.35
1563.3799999999515;-38.78
1563.3999999999514;-38.37
1563.4199999999514;-37.94
1563.4399999999514;-37.49
1563.4599999999514;-37.09
1563.4799999999514;-36.7
1563.4999999999513;-36.36
1563.5199999999513;-36.06
1563.5399999999513;-35.83
1563.5599999999513;-35.64
1563.5799999999513;-35.41
1563.5999999999513;-35.18
1563.6199999999512;-35.02
1563.6399999999512;-34.86
1563.6599999999512;-34.68
1563.6799999999512;-34.51
1563.6999999999512;-34.39
1563.7199999999511;-34.25
1563.7399999999511;-34.11
1563.759999999951;-33.98
1563.779999999951;-33.86
1563.799999999951;-33.79
1563.819999999951;-33.76
1563.839999999951;-33.72
1563.859999999951;-33.7
1563.879999999951;-33.64
1563.899999999951;-33.59
1563.919999999951;-33.59
1563.939999999951;-33.59
1563.959999999951;-33.61
1563.979999999951;-33.65
1563.999999999951;-33.71
1564.0199999999509;-33.74
1564.0399999999509;-33.78
1564.0599999999508;-33.85
1564.0799999999508;-33.93
1564.0999999999508;-34.02
1564.1199999999508;-34.1
1564.1399999999508;-34.22
1564.1599999999507;-34.36
1564.1799999999507;-34.45
1564.1999999999507;-34.53
1564.2199999999507;-34.67
1564.2399999999507;-34.82
1564.2599999999507;-34.96
1564.2799999999506;-35.1
1564.2999999999506;-35.25
1564.3199999999506;-35.43
1564.3399999999506;-35.64
1564.3599999999506;-35.83
1564.3799999999505;-36.03
1564.3999999999505;-36.28
1564.4199999999505;-36.54
1564.4399999999505;-36.99
1564.4599999999505;-37.48
1564.4799999999505;-37.89
1564.4999999999504;-38.3
1564.5199999999504;-38.77
1564.5399999999504;-39.29
1564.5599999999504;-39.95
1564.5799999999504;-40.77
1564.5999999999503;-41.72
1564.6199999999503;-42.47
1564.6399999999503;-43.08
1564.6599999999503;-43.8
1564.6799999999503;-44.67
1564.6999999999503;-45.27
1564.7199999999502;-45.62
1564.7399999999502;-45.3
1564.7599999999502;-44.81
1564.7799999999502;-43.96
1564.7999999999502;-43.13
1564.8199999999501;-42.46
1564.8399999999501;-41.75
1564.85999999995;-40.97
1564.87999999995;-40.18
1564.89999999995;-39.36
1564.91999999995;-38.83
1564.93999999995;-38.4
1564.95999999995;-38.0
1564.97999999995;-37.59
1564.99999999995;-37.13
1565.01999999995;-36.69
1565.03999999995;-36.34
1565.05999999995;-36.02
1565.07999999995;-35.74
1565.09999999995;-35.48
1565.1199999999499;-35.27
1565.1399999999499;-35.06
1565.1599999999498;-34.82
1565.1799999999498;-34.59
1565.1999999999498;-34.39
1565.2199999999498;-34.27
1565.2399999999498;-34.15
1565.2599999999497;-34.0
1565.2799999999497;-33.85
1565.2999999999497;-33.73
1565.3199999999497;-33.62
1565.3399999999497;-33.52
1565.3599999999497;-33.43
1565.3799999999496;-33.38
1565.3999999999496;-33.33
1565.4199999999496;-33.29
1565.4399999999496;-33.27
1565.4599999999496;-33.28
1565.4799999999495;-33.29
1565.4999999999495;-33.3
1565.5199999999495;-33.31
1565.5399999999495;-33.32
1565.5599999999495;-33.33
1565.5799999999495;-33.33
1565.5999999999494;-33.36
1565.6199999999494;-33.42
1565.6399999999494;-33.52
1565.6599999999494;-33.6
1565.6799999999494;-33.7
1565.6999999999493;-33.78
1565.7199999999493;-33.85
1565.7399999999493;-33.97
1565.7599999999493;-34.1
1565.7799999999493;-34.21
1565.7999999999493;-34.33
1565.8199999999492;-34.38
1565.8399999999492;-34.46
1565.8599999999492;-34.66
1565.8799999999492;-34.85
1565.8999999999492;-35.02
1565.9199999999491;-35.22
1565.9399999999491;-35.44
1565.959999999949;-35.63
1565.979999999949;-35.81
1565.999999999949;-36.06
1566.019999999949;-36.33
1566.039999999949;-36.76
1566.059999999949;-37.2
1566.079999999949;-37.68
1566.099999999949;-38.14
1566.119999999949;-38.59
1566.139999999949;-39.09
1566.159999999949;-39.68
1566.179999999949;-40.39
1566.199999999949;-41.16
1566.2199999999489;-41.82
1566.2399999999489;-42.44
1566.2599999999488;-43.01
1566.2799999999488;-43.59
1566.2999999999488;-44.19
1566.3199999999488;-44.67
1566.3399999999488;-44.52
1566.3599999999487;-44.2
1566.3799999999487;-43.74
1566.3999999999487;-43.22
1566.4199999999487;-42.57
1566.4399999999487;-41.95
1566.4599999999486;-41.34
1566.4799999999486;-40.59
1566.4999999999486;-39.75
1566.5199999999486;-39.19
1566.5399999999486;-38.69
1566.5599999999486;-38.18
1566.5799999999485;-37.69
1566.5999999999485;-37.26
1566.6199999999485;-36.84
1566.6399999999485;-36.43
1566.6599999999485;-36.11
1566.6799999999484;-35.86
1566.6999999999484;-35.59
1566.7199999999484;-35.3
1566.7399999999484;-35.14
1566.7599999999484;-34.99
1566.7799999999484;-34.83
1566.7999999999483;-34.67
1566.8199999999483;-34.5
1566.8399999999483;-34.34
1566.8599999999483;-34.2
1566.8799999999483;-34.04
1566.8999999999482;-33.93
1566.9199999999482;-33.86
1566.9399999999482;-33.81
1566.9599999999482;-33.72
1566.9799999999482;-33.61
1566.9999999999482;-33.55
1567.0199999999481;-33.52
1567.0399999999481;-33.53
1567.059999999948;-33.54
1567.079999999948;-33.54
1567.099999999948;-33.55
1567.119999999948;-33.57
1567.139999999948;-33.59
1567.159999999948;-33.63
1567.179999999948;-33.67
1567.199999999948;-33.74
1567.219999999948;-33.76
1567.239999999948;-33.78
1567.259999999948;-33.88
1567.279999999948;-33.99
1567.2999999999479;-34.09
1567.3199999999479;-34.18
1567.3399999999478;-34.28
1567.3599999999478;-34.35
1567.3799999999478;-34.42
1567.3999999999478;-34.53
1567.4199999999478;-34.66
1567.4399999999478;-34.77
1567.4599999999477;-34.88
1567.4799999999477;-35.06
1567.4999999999477;-35.24
1567.5199999999477;-35.37
1567.5399999999477;-35.53
1567.5599999999476;-35.73
1567.5799999999476;-35.93
1567.5999999999476;-36.12
1567.6199999999476;-36.4
1567.6399999999476;-36.72
1567.6599999999476;-37.03
1567.6799999999475;-37.34
1567.6999999999475;-37.78
1567.7199999999475;-38.24
1567.7399999999475;-38.73
1567.7599999999475;-39.31
1567.7799999999474;-40.13
1567.7999999999474;-40.96
1567.8199999999474;-41.72
1567.8399999999474;-42.73
1567.8599999999474;-43.9
1567.8799999999474;-44.75
1567.8999999999473;-45.53
1567.9199999999473;-45.84
1567.9399999999473;-46.06
1567.9599999999473;-46.15
1567.9799999999473;-45.97
1567.9999999999472;-45.34
1568.0199999999472;-44.57
1568.0399999999472;-43.67
1568.0599999999472;-42.79
1568.0799999999472;-41.96
1568.0999999999472;-41.28
1568.1199999999471;-40.61
1568.1399999999471;-39.92
1568.159999999947;-39.28
1568.179999999947;-38.77
1568.199999999947;-38.29
1568.219999999947;-37.9
1568.239999999947;-37.53
1568.259999999947;-37.14
1568.279999999947;-36.71
1568.299999999947;-36.32
1568.319999999947;-36.09
1568.339999999947;-35.89
1568.359999999947;-35.68
1568.379999999947;-35.49
1568.3999999999469;-35.34
1568.4199999999469;-35.19
1568.4399999999468;-35.06
1568.4599999999468;-34.96
1568.4799999999468;-34.86
1568.4999999999468;-34.75
1568.5199999999468;-34.65
1568.5399999999468;-34.6
1568.5599999999467;-34.56
1568.5799999999467;-34.52
1568.5999999999467;-34.46
1568.6199999999467;-34.38
1568.6399999999467;-34.33
1568.6599999999466;-34.35
1568.6799999999466;-34.35
1568.6999999999466;-34.34
1568.7199999999466;-34.32
1568.7399999999466;-34.3
1568.7599999999466;-34.32
1568.7799999999465;-34.36
1568.7999999999465;-34.41
1568.8199999999465;-34.47
1568.8399999999465;-34.55
1568.8599999999465;-34.62
1568.8799999999464;-34.66
1568.8999999999464;-34.7
1568.9199999999464;-34.74
1568.9399999999464;-34.81
1568.9599999999464;-34.89
1568.9799999999464;-34.96
1568.9999999999463;-35.05
1569.0199999999463;-35.16
1569.0399999999463;-35.26
1569.0599999999463;-35.31
1569.0799999999463;-35.4
1569.0999999999462;-35.55
1569.1199999999462;-35.69
1569.1399999999462;-35.82
1569.1599999999462;-35.97
1569.1799999999462;-36.15
1569.1999999999462;-36.38
1569.2199999999461;-36.64
1569.2399999999461;-37.04
1569.259999999946;-37.44
1569.279999999946;-37.8
1569.299999999946;-38.15
1569.319999999946;-38.58
1569.339999999946;-39.04
1569.359999999946;-39.55
1569.379999999946;-40.32
1569.399999999946;-41.13
1569.419999999946;-41.79
1569.439999999946;-42.54
1569.459999999946;-43.75
1569.479999999946;-44.87
1569.4999999999459;-45.64
1569.5199999999459;-46.38
1569.5399999999458;-47.28
1569.5599999999458;-47.64
1569.5799999999458;-47.64
1569.5999999999458;-47.03
1569.6199999999458;-46.08
1569.6399999999458;-45.15
1569.6599999999457;-44.21
1569.6799999999457;-43.57
1569.6999999999457;-42.84
1569.7199999999457;-41.95
1569.7399999999457;-41.2
1569.7599999999456;-40.6
1569.7799999999456;-40.05
1569.7999999999456;-39.53
1569.8199999999456;-39.15
1569.8399999999456;-38.8
1569.8599999999456;-38.42
1569.8799999999455;-38.05
1569.8999999999455;-37.74
1569.9199999999455;-37.43
1569.9399999999455;-37.12
1569.9599999999455;-36.84
1569.9799999999454;-36.58
1569.9999999999454;-36.38
1570.0199999999454;-36.25
1570.0399999999454;-36.13
1570.0599999999454;-36.01
1570.0799999999454;-35.88
1570.0999999999453;-35.74
1570.1199999999453;-35.69
1570.1399999999453;-35.64
1570.1599999999453;-35.55
1570.1799999999453;-35.48
1570.1999999999452;-35.43
1570.2199999999452;-35.4
1570.2399999999452;-35.38
1570.2599999999452;-35.38
1570.2799999999452;-35.39
1570.2999999999452;-35.34
1570.3199999999451;-35.3
1570.3399999999451;-35.3
1570.359999999945;-35.3
1570.379999999945;-35.29
1570.399999999945;-35.31
1570.419999999945;-35.36
1570.439999999945;-35.4
1570.459999999945;-35.42
1570.479999999945;-35.47
1570.499999999945;-35.52
1570.519999999945;-35.58
1570.539999999945;-35.64
1570.559999999945;-35.69
1570.579999999945;-35.73
1570.5999999999449;-35.8
1570.6199999999449;-35.88
1570.6399999999448;-35.99
1570.6599999999448;-36.1
1570.6799999999448;-36.22
1570.6999999999448;-36.37
1570.7199999999448;-36.58
1570.7399999999448;-36.81
1570.7599999999447;-37.06
1570.7799999999447;-37.44
1570.7999999999447;-37.82
1570.8199999999447;-38.13
1570.8399999999447;-38.43
1570.8599999999446;-38.81
1570.8799999999446;-39.23
1570.8999999999446;-39.73
1570.9199999999446;-40.28
1570.9399999999446;-40.88
1570.9599999999446;-41.4
1570.9799999999445;-41.81
1570.9999999999445;-42.45
1571.0199999999445;-43.22
1571.0399999999445;-43.74
1571.0599999999445;-44.22
1571.0799999999444;-45.08
1571.0999999999444;-45.76
1571.1199999999444;-45.42
1571.1399999999444;-45.14
1571.1599999999444;-45.04
1571.1799999999444;-44.89
1571.1999999999443;-44.36
1571.2199999999443;-43.85
1571.2399999999443;-43.45
1571.2599999999443;-42.89
1571.2799999999443;-42.21
1571.2999999999442;-41.71
1571.3199999999442;-41.26
1571.3399999999442;-40.81
1571.3599999999442;-40.4
1571.3799999999442;-40.06
1571.3999999999442;-39.75
1571.4199999999441;-39.46
1571.4399999999441;-39.15
1571.459999999944;-38.85
1571.479999999944;-38.59
1571.499999999944;-38.4
1571.519999999944;-38.21
1571.539999999944;-38.02
1571.559999999944;-37.85
1571.579999999944;-37.73
1571.599999999944;-37.55
1571.619999999944;-37.34
1571.639999999944;-37.2
1571.659999999944;-37.08
1571.679999999944;-37.01
1571.6999999999439;-36.96
1571.7199999999439;-36.76
1571.7399999999438;-36.58
1571.7599999999438;-36.56
1571.7799999999438;-36.55
1571.7999999999438;-36.51
1571.8199999999438;-36.46
1571.8399999999438;-36.39
1571.8599999999437;-36.34
1571.8799999999437;-36.31
1571.8999999999437;-36.32
1571.9199999999437;-36.37
1571.9399999999437;-36.38
1571.9599999999436;-36.34
1571.9799999999436;-36.4
1571.9999999999436;-36.47
1572.0199999999436;-36.51
1572.0399999999436;-36.56
1572.0599999999436;-36.66
1572.0799999999435;-36.76
1572.0999999999435;-36.9
1572.1199999999435;-37.03
1572.1399999999435;-37.16
1572.1599999999435;-37.34
1572.1799999999434;-37.53
1572.1999999999434;-37.66
1572.2199999999434;-37.81
1572.2399999999434;-38.03
1572.2599999999434;-38.28
1572.2799999999434;-38.58
1572.2999999999433;-38.88
1572.3199999999433;-39.08
1572.3399999999433;-39.26
1572.3599999999433;-39.66
1572.3799999999433;-40.08
1572.3999999999432;-40.44
1572.4199999999432;-40.83
1572.4399999999432;-41.3
1572.4599999999432;-41.7
1572.4799999999432;-41.88
1572.4999999999432;-42.04
1572.5199999999431;-42.2
1572.5399999999431;-42.45
1572.559999999943;-42.82
1572.579999999943;-43.01
1572.599999999943;-42.99
1572.619999999943;-42.86
1572.639999999943;-42.41
1572.659999999943;-42.1
1572.679999999943;-42.03
1572.699999999943;-41.78
1572.719999999943;-41.34
1572.739999999943;-40.95
1572.759999999943;-40.64
1572.779999999943;-40.34
1572.7999999999429;-40.01
1572.8199999999429;-39.62
1572.8399999999428;-39.22
1572.8599999999428;-39.04
1572.8799999999428;-38.91
1572.8999999999428;-38.72
1572.9199999999428;-38.51
1572.9399999999428;-38.35
1572.9599999999427;-38.19
1572.9799999999427;-38.0
1572.9999999999427;-37.81
1573.0199999999427;-37.6
1573.0399999999427;-37.39
1573.0599999999426;-37.31
1573.0799999999426;-37.24
1573.0999999999426;-37.09
1573.1199999999426;-36.94
1573.1399999999426;-36.87
1573.1599999999426;-36.81
1573.1799999999425;-36.77
1573.1999999999425;-36.73
1573.2199999999425;-36.68
1573.2399999999425;-36.62
1573.2599999999425;-36.54
1573.2799999999424;-36.51
1573.2999999999424;-36.51
1573.3199999999424;-36.52
1573.3399999999424;-36.51
1573.3599999999424;-36.52
1573.3799999999424;-36.56
1573.3999999999423;-36.58
1573.4199999999423;-36.61
1573.4399999999423;-36.65
1573.4599999999423;-36.7
1573.4799999999423;-36.82
1573.4999999999422;-36.92
1573.5199999999422;-37.08
1573.5399999999422;-37.27
1573.5599999999422;-37.42
1573.5799999999422;-37.6
1573.5999999999422;-37.81
1573.6199999999421;-38.0
1573.6399999999421;-38.18
1573.659999999942;-38.37
1573.679999999942;-38.52
1573.699999999942;-38.71
1573.719999999942;-39.02
1573.739999999942;-39.36
1573.759999999942;-39.79
1573.779999999942;-40.26
1573.799999999942;-40.73
1573.819999999942;-41.26
1573.839999999942;-41.8
1573.859999999942;-42.27
1573.879999999942;-42.75
1573.8999999999419;-43.25
1573.9199999999419;-43.77
1573.9399999999418;-44.19
1573.9599999999418;-44.46
1573.9799999999418;-44.84
1573.9999999999418;-45.29
1574.0199999999418;-44.93
1574.0399999999418;-44.31
1574.0599999999417;-43.97
1574.0799999999417;-43.59
1574.0999999999417;-42.91
1574.1199999999417;-42.14
1574.1399999999417;-41.64
1574.1599999999416;-41.24
1574.1799999999416;-40.83
1574.1999999999416;-40.45
1574.2199999999416;-39.96
1574.2399999999416;-39.41
1574.2599999999416;-38.98
1574.2799999999415;-38.63
1574.2999999999415;-38.38
1574.3199999999415;-38.15
1574.3399999999415;-37.89
1574.3599999999415;-37.64
1574.3799999999414;-37.41
1574.3999999999414;-37.18
1574.4199999999414;-36.92
1574.4399999999414;-36.66
1574.4599999999414;-36.49
1574.4799999999414;-36.36
1574.4999999999413;-36.18
1574.5199999999413;-36.0
1574.5399999999413;-35.87
1574.5599999999413;-35.75
1574.5799999999413;-35.65
1574.5999999999412;-35.53
1574.6199999999412;-35.47
1574.6399999999412;-35.44
1574.6599999999412;-35.37
1574.6799999999412;-35.29
1574.6999999999412;-35.25
1574.7199999999411;-35.22
1574.7399999999411;-35.25
1574.759999999941;-35.27
1574.779999999941;-35.23
1574.799999999941;-35.19
1574.819999999941;-35.2
1574.839999999941;-35.22
1574.859999999941;-35.27
1574.879999999941;-35.32
1574.899999999941;-35.38
1574.919999999941;-35.45
1574.939999999941;-35.53
1574.959999999941;-35.61
1574.979999999941;-35.7
1574.9999999999409;-35.79
1575.0199999999409;-35.9
1575.0399999999408;-36.0
1575.0599999999408;-36.11
1575.0799999999408;-36.24
1575.0999999999408;-36.38
1575.1199999999408;-36.53
1575.1399999999408;-36.83
1575.1599999999407;-37.15
1575.1799999999407;-37.46
1575.1999999999407;-37.78
1575.2199999999407;-38.12
1575.2399999999407;-38.45
1575.2599999999406;-38.84
1575.2799999999406;-39.27
1575.2999999999406;-39.88
1575.3199999999406;-40.5
1575.3399999999406;-41.05
1575.3599999999406;-41.6
1575.3799999999405;-42.24
1575.3999999999405;-43.0
1575.4199999999405;-44.13
1575.4399999999405;-45.31
1575.4599999999405;-46.44
1575.4799999999404;-47.26
1575.4999999999404;-47.65
1575.5199999999404;-48.06
1575.5399999999404;-48.03
1575.5599999999404;-47.64
1575.5799999999404;-46.2
1575.5999999999403;-44.78
1575.6199999999403;-43.78
1575.6399999999403;-42.86
1575.6599999999403;-41.99
1575.6799999999403;-41.2
1575.6999999999402;-40.64
1575.7199999999402;-40.08
1575.7399999999402;-39.52
1575.7599999999402;-39.02
1575.7799999999402;-38.61
1575.7999999999402;-38.2
1575.8199999999401;-37.79
1575.8399999999401;-37.38
1575.85999999994;-37.02
1575.87999999994;-36.69
1575.89999999994;-36.42
1575.91999999994;-36.16
1575.93999999994;-35.93
1575.95999999994;-35.74
1575.97999999994;-35.58
1575.99999999994;-35.42
1576.01999999994;-35.27
1576.03999999994;-35.13
1576.05999999994;-34.99
1576.07999999994;-34.85
1576.0999999999399;-34.71
1576.1199999999399;-34.6
1576.1399999999398;-34.51
1576.1599999999398;-34.42
1576.1799999999398;-34.35
1576.1999999999398;-34.27
1576.2199999999398;-34.23
1576.2399999999398;-34.19
1576.2599999999397;-34.14
1576.2799999999397;-34.08
1576.2999999999397;-34.04
1576.3199999999397;-34.04
1576.3399999999397;-34.05
1576.3599999999396;-34.06
1576.3799999999396;-34.09
1576.3999999999396;-34.12
1576.4199999999396;-34.15
1576.4399999999396;-34.21
1576.4599999999396;-34.31
1576.4799999999395;-34.41
1576.4999999999395;-34.47
1576.5199999999395;-34.53
1576.5399999999395;-34.63
1576.5599999999395;-34.73
1576.5799999999394;-34.84
1576.5999999999394;-34.95
1576.6199999999394;-35.1
1576.6399999999394;-35.24
1576.6599999999394;-35.35
1576.6799999999394;-35.48
1576.6999999999393;-35.69
1576.7199999999393;-35.87
1576.7399999999393;-36.04
1576.7599999999393;-36.26
1576.7799999999393;-36.55
1576.7999999999392;-36.83
1576.8199999999392;-37.21
1576.8399999999392;-37.61
1576.8599999999392;-38.07
1576.8799999999392;-38.52
1576.8999999999392;-38.94
1576.9199999999391;-39.42
1576.9399999999391;-40.08
1576.959999999939;-40.76
1576.979999999939;-41.52
1576.999999999939;-42.29
1577.019999999939;-43.14
1577.039999999939;-44.01
1577.059999999939;-44.79
1577.079999999939;-45.49
1577.099999999939;-45.7
1577.119999999939;-45.66
1577.139999999939;-45.08
1577.159999999939;-44.54
1577.179999999939;-43.83
1577.1999999999389;-43.11
1577.2199999999389;-42.22
1577.2399999999388;-41.33
1577.2599999999388;-40.57
1577.2799999999388;-39.86
1577.2999999999388;-39.39
1577.3199999999388;-38.91
1577.3399999999388;-38.51
1577.3599999999387;-38.15
1577.3799999999387;-37.7
1577.3999999999387;-37.24
1577.4199999999387;-36.83
1577.4399999999387;-36.46
1577.4599999999386;-36.19
1577.4799999999386;-35.95
1577.4999999999386;-35.75
1577.5199999999386;-35.55
1577.5399999999386;-35.35
1577.5599999999386;-35.15
1577.5799999999385;-34.93
1577.5999999999385;-34.73
1577.6199999999385;-34.54
1577.6399999999385;-34.39
1577.6599999999385;-34.3
1577.6799999999384;-34.19
1577.6999999999384;-34.07
1577.7199999999384;-33.96
1577.7399999999384;-33.86
1577.7599999999384;-33.78
1577.7799999999384;-33.73
1577.7999999999383;-33.69
1577.8199999999383;-33.67
1577.8399999999383;-33.66
1577.8599999999383;-33.6
1577.8799999999383;-33.57
1577.8999999999382;-33.58
1577.9199999999382;-33.6
1577.9399999999382;-33.62
1577.9599999999382;-33.65
1577.9799999999382;-33.67
1577.9999999999382;-33.7
1578.0199999999381;-33.78
1578.0399999999381;-33.86
1578.059999999938;-33.88
1578.079999999938;-33.93
1578.099999999938;-34.0
1578.119999999938;-34.08
1578.139999999938;-34.18
1578.159999999938;-34.28
1578.179999999938;-34.38
1578.199999999938;-34.51
1578.219999999938;-34.67
1578.239999999938;-34.81
1578.259999999938;-34.96
1578.279999999938;-35.09
1578.2999999999379;-35.2
1578.3199999999379;-35.35
1578.3399999999378;-35.56
1578.3599999999378;-35.77
1578.3799999999378;-35.96
1578.3999999999378;-36.22
1578.4199999999378;-36.55
1578.4399999999378;-36.9
1578.4599999999377;-37.27
1578.4799999999377;-37.66
1578.4999999999377;-38.08
1578.5199999999377;-38.47
1578.5399999999377;-38.86
1578.5599999999376;-39.39
1578.5799999999376;-40.03
1578.5999999999376;-40.67
1578.6199999999376;-41.28
1578.6399999999376;-41.91
1578.6599999999376;-42.64
1578.6799999999375;-43.25
1578.6999999999375;-43.77
1578.7199999999375;-44.22
1578.7399999999375;-44.57
1578.7599999999375;-44.5
1578.7799999999374;-44.32
1578.7999999999374;-43.68
1578.8199999999374;-42.72
1578.8399999999374;-42.0
1578.8599999999374;-41.41
1578.8799999999374;-40.72
1578.8999999999373;-40.03
1578.9199999999373;-39.49
1578.9399999999373;-38.98
1578.9599999999373;-38.52
1578.9799999999373;-38.09
1578.9999999999372;-37.76
1579.0199999999372;-37.43
1579.0399999999372;-37.03
1579.0599999999372;-36.63
1579.0799999999372;-36.31
1579.0999999999372;-36.01
1579.1199999999371;-35.79
1579.1399999999371;-35.58
1579.159999999937;-35.39
1579.179999999937;-35.2
1579.199999999937;-35.02
1579.219999999937;-34.86
1579.239999999937;-34.74
1579.259999999937;-34.61
1579.279999999937;-34.45
1579.299999999937;-34.31
1579.319999999937;-34.21
1579.339999999937;-34.12
1579.359999999937;-34.03
1579.379999999937;-33.97
1579.3999999999369;-33.93
1579.4199999999369;-33.89
1579.4399999999368;-33.87
1579.4599999999368;-33.85
1579.4799999999368;-33.83
1579.4999999999368;-33.81
1579.5199999999368;-33.78
1579.5399999999368;-33.81
1579.5599999999367;-33.86
1579.5799999999367;-33.88
1579.5999999999367;-33.9
1579.6199999999367;-33.97
1579.6399999999367;-34.04
1579.6599999999366;-34.08
1579.6799999999366;-34.11
1579.6999999999366;-34.22
1579.7199999999366;-34.33
1579.7399999999366;-34.36
1579.7599999999366;-34.4
1579.7799999999365;-34.54
1579.7999999999365;-34.66
1579.8199999999365;-34.72
1579.8399999999365;-34.81
1579.8599999999365;-34.97
1579.8799999999364;-35.11
1579.8999999999364;-35.2
1579.9199999999364;-35.29
1579.9399999999364;-35.44
1579.9599999999364;-35.59
1579.9799999999364;-35.75
1579.9999999999363;-35.93
1580.0199999999363;-36.14
1580.0399999999363;-36.4
1580.0599999999363;-36.7
1580.0799999999363;-37.03
1580.0999999999362;-37.37
1580.1199999999362;-37.75
1580.1399999999362;-38.16
1580.1599999999362;-38.52
1580.1799999999362;-38.87
1580.1999999999362;-39.52
1580.2199999999361;-40.27
1580.2399999999361;-41.14
1580.259999999936;-42.07
1580.279999999936;-42.92
1580.299999999936;-43.7
1580.319999999936;-44.65
1580.339999999936;-45.62
1580.359999999936;-45.79
1580.379999999936;-45.89
1580.399999999936;-45.89
1580.419999999936;-45.8
1580.439999999936;-45.14
1580.459999999936;-44.43
1580.479999999936;-43.46
1580.4999999999359;-42.52
1580.5199999999359;-41.77
1580.5399999999358;-41.05
1580.5599999999358;-40.36
1580.5799999999358;-39.8
1580.5999999999358;-39.37
1580.6199999999358;-38.91
1580.6399999999358;-38.48
1580.6599999999357;-38.05
1580.6799999999357;-37.64
1580.6999999999357;-37.31
1580.7199999999357;-37.02
1580.7399999999357;-36.68
1580.7599999999356;-36.31
1580.7799999999356;-36.13
1580.7999999999356;-35.97
1580.8199999999356;-35.8
1580.8399999999356;-35.63
1580.8599999999356;-35.5
1580.8799999999355;-35.37
1580.8999999999355;-35.23
1580.9199999999355;-35.1
1580.9399999999355;-35.0
1580.9599999999355;-34.91
1580.9799999999354;-34.82
1580.9999999999354;-34.77
1581.0199999999354;-34.76
1581.0399999999354;-34.74
1581.0599999999354;-34.73
1581.0799999999354;-34.71
1581.0999999999353;-34.68
1581.1199999999353;-34.63
1581.1399999999353;-34.59
1581.1599999999353;-34.58
1581.1799999999353;-34.57
1581.1999999999352;-34.56
1581.2199999999352;-34.55
1581.2399999999352;-34.59
1581.2599999999352;-34.63
1581.2799999999352;-34.64
1581.2999999999352;-34.66
1581.3199999999351;-34.7
1581.3399999999351;-34.73
1581.359999999935;-34.78
1581.379999999935;-34.84
1581.399999999935;-34.92
1581.419999999935;-35.0
1581.439999999935;-35.09
1581.459999999935;-35.18
1581.479999999935;-35.27
1581.499999999935;-35.38
1581.519999999935;-35.5
1581.539999999935;-35.58
1581.559999999935;-35.65
1581.579999999935;-35.77
1581.5999999999349;-35.91
1581.6199999999349;-36.05
1581.6399999999348;-36.21
1581.6599999999348;-36.5
1581.6799999999348;-36.81
1581.6999999999348;-37.21
1581.7199999999348;-37.62
1581.7399999999348;-38.05
1581.7599999999347;-38.47
1581.7799999999347;-38.88
1581.7999999999347;-39.35
1581.8199999999347;-39.93
1581.8399999999347;-40.59
1581.8599999999346;-41.3
1581.8799999999346;-42.06
1581.8999999999346;-42.9
1581.9199999999346;-44.26
1581.9399999999346;-45.66
1581.9599999999346;-46.17
1581.9799999999345;-46.7
1581.9999999999345;-47.57
1582.0199999999345;-48.01
1582.0399999999345;-47.53
1582.0599999999345;-47.24
1582.0799999999344;-46.76
1582.0999999999344;-46.15
1582.1199999999344;-45.3
1582.1399999999344;-44.4
1582.1599999999344;-43.51
1582.1799999999344;-42.6
1582.1999999999343;-41.6
1582.2199999999343;-40.95
1582.2399999999343;-40.56
1582.2599999999343;-40.08
1582.2799999999343;-39.54
1582.2999999999342;-39.12
1582.3199999999342;-38.78
1582.3399999999342;-38.5
1582.3599999999342;-38.21
1582.3799999999342;-37.97
1582.3999999999342;-37.73
1582.4199999999341;-37.41
1582.4399999999341;-37.1
1582.459999999934;-36.9
1582.479999999934;-36.7
1582.499999999934;-36.49
1582.519999999934;-36.3
1582.539999999934;-36.2
1582.559999999934;-36.12
1582.579999999934;-36.06
1582.599999999934;-35.98
1582.619999999934;-35.89
1582.639999999934;-35.83
1582.659999999934;-35.76
1582.679999999934;-35.73
1582.6999999999339;-35.71
1582.7199999999339;-35.7
1582.7399999999338;-35.69
1582.7599999999338;-35.67
1582.7799999999338;-35.65
1582.7999999999338;-35.57
1582.8199999999338;-35.51
1582.8399999999338;-35.49
1582.8599999999337;-35.47
1582.8799999999337;-35.42
1582.8999999999337;-35.43
1582.9199999999337;-35.53
1582.9399999999337;-35.57
1582.9599999999336;-35.55
1582.9799999999336;-35.58
1582.9999999999336;-35.64
1583.0199999999336;-35.67
1583.0399999999336;-35.7
1583.0599999999336;-35.74
1583.0799999999335;-35.79
1583.0999999999335;-35.88
1583.1199999999335;-35.97
1583.1399999999335;-36.09
1583.1599999999335;-36.22
1583.1799999999334;-36.37
1583.1999999999334;-36.54
1583.2199999999334;-36.75
1583.2399999999334;-36.98
1583.2599999999334;-37.28
1583.2799999999334;-37.61
1583.2999999999333;-38.0
1583.3199999999333;-38.37
1583.3399999999333;-38.75
1583.3599999999333;-39.17
1583.3799999999333;-39.63
1583.3999999999332;-40.15
1583.4199999999332;-40.68
1583.4399999999332;-41.3
1583.4599999999332;-41.95
1583.4799999999332;-42.52
1583.4999999999332;-43.13
1583.5199999999331;-43.96
1583.5399999999331;-44.76
1583.559999999933;-45.01
1583.579999999933;-45.34
1583.599999999933;-46.06
1583.619999999933;-46.41
1583.639999999933;-46.0
1583.659999999933;-45.66
1583.679999999933;-45.39
1583.699999999933;-44.78
1583.719999999933;-43.9
1583.739999999933;-43.36
1583.759999999933;-43.06
1583.779999999933;-42.51
1583.7999999999329;-41.79
1583.8199999999329;-41.34
1583.8399999999328;-41.01
1583.8599999999328;-40.84
1583.8799999999328;-40.63
1583.8999999999328;-40.18
1583.9199999999328;-39.73
1583.9399999999328;-39.42
1583.9599999999327;-39.13
1583.9799999999327;-38.98
1583.9999999999327;-38.83
1584.0199999999327;-38.65
1584.0399999999327;-38.48
1584.0599999999326;-38.35
1584.0799999999326;-38.22
1584.0999999999326;-38.06
1584.1199999999326;-37.9
1584.1399999999326;-37.76
1584.1599999999326;-37.65
1584.1799999999325;-37.59
1584.1999999999325;-37.53
1584.2199999999325;-37.44
1584.2399999999325;-37.33
1584.2599999999325;-37.2
1584.2799999999324;-37.08
1584.2999999999324;-36.98
1584.3199999999324;-36.88
1584.3399999999324;-36.78
1584.3599999999324;-36.75
1584.3799999999324;-36.74
1584.3999999999323;-36.68
1584.4199999999323;-36.61
1584.4399999999323;-36.62
1584.4599999999323;-36.62
1584.4799999999323;-36.58
1584.4999999999322;-36.53
1584.5199999999322;-36.54
1584.5399999999322;-36.56
1584.5599999999322;-36.6
1584.5799999999322;-36.68
1584.5999999999322;-36.81
1584.6199999999321;-36.93
1584.6399999999321;-37.02
1584.659999999932;-37.15
1584.679999999932;-37.31
1584.699999999932;-37.48
1584.719999999932;-37.62
1584.739999999932;-37.8
1584.759999999932;-38.04
1584.779999999932;-38.28
1584.799999999932;-38.53
1584.819999999932;-38.82
1584.839999999932;-39.12
1584.859999999932;-39.5
1584.879999999932;-39.91
1584.8999999999319;-40.32
1584.9199999999319;-40.72
1584.9399999999318;-40.86
1584.9599999999318;-40.99
1584.9799999999318;-41.66
1584.9999999999318;-42.36
1585.0199999999318;-42.69
1585.0399999999318;-43.06
1585.0599999999317;-43.63
1585.0799999999317;-44.05
1585.0999999999317;-43.99
1585.1199999999317;-43.86
1585.1399999999317;-43.76
1585.1599999999316;-43.54
1585.1799999999316;-43.13
1585.1999999999316;-42.95
1585.2199999999316;-42.85
1585.2399999999316;-42.42
1585.2599999999316;-41.86
1585.2799999999315;-41.54
1585.2999999999315;-41.3
1585.3199999999315;-40.96
1585.3399999999315;-40.58
1585.3599999999315;-40.24
1585.3799999999314;-39.91
1585.3999999999314;-39.55
1585.4199999999314;-39.21
1585.4399999999314;-39.11
1585.4599999999314;-39.02
1585.4799999999314;-38.83
1585.4999999999313;-38.64
1585.5199999999313;-38.54
1585.5399999999313;-38.44
1585.5599999999313;-38.33
1585.5799999999313;-38.22
1585.5999999999312;-38.14
1585.6199999999312;-38.05
1585.6399999999312;-37.93
1585.6599999999312;-37.85
1585.6799999999312;-37.82
1585.6999999999312;-37.78
1585.7199999999311;-37.72
1585.7399999999311;-37.67
1585.759999999931;-37.6
1585.779999999931;-37.52
1585.799999999931;-37.47
1585.819999999931;-37.43
1585.839999999931;-37.38
1585.859999999931;-37.34
1585.879999999931;-37.3
1585.899999999931;-37.35
1585.919999999931;-37.45
1585.939999999931;-37.51
1585.959999999931;-37.54
1585.979999999931;-37.54
1585.9999999999309;-37.56
1586.0199999999309;-37.57
1586.0399999999308;-37.55
1586.0599999999308;-37.64
1586.0799999999308;-37.77
1586.0999999999308;-37.88
1586.1199999999308;-37.99
1586.1399999999308;-38.07
1586.1599999999307;-38.15
1586.1799999999307;-38.38
1586.1999999999307;-38.64
1586.2199999999307;-38.76
1586.2399999999307;-38.88
1586.2599999999306;-39.23
1586.2799999999306;-39.62
1586.2999999999306;-39.99
1586.3199999999306;-40.37
1586.3399999999306;-40.78
1586.3599999999306;-41.2
1586.3799999999305;-41.79
1586.3999999999305;-42.35
1586.4199999999305;-42.66
1586.4399999999305;-43.08
1586.4599999999305;-43.76
1586.4799999999304;-44.25
1586.4999999999304;-44.49
1586.5199999999304;-44.87
1586.5399999999304;-45.52
1586.5599999999304;-45.58
1586.5799999999304;-44.75
1586.5999999999303;-44.14
1586.6199999999303;-43.9
1586.6399999999303;-43.48
1586.6599999999303;-42.82
1586.6799999999303;-42.31
1586.6999999999302;-41.94
1586.7199999999302;-41.56
1586.7399999999302;-41.13
1586.7599999999302;-40.64
1586.7799999999302;-40.17
1586.7999999999302;-39.75
1586.8199999999301;-39.34
1586.8399999999301;-39.06
1586.85999999993;-38.82
1586.87999999993;-38.55
1586.89999999993;-38.28
1586.91999999993;-38.0
1586.93999999993;-37.74
1586.95999999993;-37.58
1586.97999999993;-37.41
1586.99999999993;-37.21
1587.01999999993;-37.03
1587.03999999993;-36.88
1587.05999999993;-36.72
1587.07999999993;-36.56
1587.0999999999299;-36.43
1587.1199999999299;-36.31
1587.1399999999298;-36.21
1587.1599999999298;-36.13
1587.1799999999298;-36.08
1587.1999999999298;-36.06
1587.2199999999298;-36.05
1587.2399999999298;-36.03
1587.2599999999297;-36.02
1587.2799999999297;-36.03
1587.2999999999297;-36.03
1587.3199999999297;-36.05
1587.3399999999297;-36.05
1587.3599999999296;-36.03
1587.3799999999296;-36.04
1587.3999999999296;-36.09
1587.4199999999296;-36.1
1587.4399999999296;-36.08
1587.4599999999296;-36.14
1587.4799999999295;-36.23
1587.4999999999295;-36.31
1587.5199999999295;-36.39
1587.5399999999295;-36.49
1587.5599999999295;-36.59
1587.5799999999294;-36.68
1587.5999999999294;-36.78
1587.6199999999294;-37.02
1587.6399999999294;-37.24
1587.6599999999294;-37.4
1587.6799999999294;-37.55
1587.6999999999293;-37.85
1587.7199999999293;-38.16
1587.7399999999293;-38.39
1587.7599999999293;-38.62
1587.7799999999293;-38.94
1587.7999999999292;-39.28
1587.8199999999292;-39.65
1587.8399999999292;-40.07
1587.8599999999292;-40.61
1587.8799999999292;-41.19
1587.8999999999292;-41.84
1587.9199999999291;-42.7
1587.9399999999291;-43.77
1587.959999999929;-44.65
1587.979999999929;-45.29
1587.999999999929;-46.86
1588.019999999929;-49.31
1588.039999999929;-50.2
1588.059999999929;-50.02
1588.079999999929;-49.06
1588.099999999929;-47.8
1588.119999999929;-46.85
1588.139999999929;-46.03
1588.159999999929;-45.18
1588.179999999929;-44.26
1588.1999999999289;-43.09
1588.2199999999289;-42.0
1588.2399999999288;-41.41
1588.2599999999288;-40.84
1588.2799999999288;-40.25
1588.2999999999288;-39.68
1588.3199999999288;-39.21
1588.3399999999288;-38.76
1588.3599999999287;-38.44
1588.3799999999287;-38.13
1588.3999999999287;-37.83
1588.4199999999287;-37.52
1588.4399999999287;-37.15
1588.4599999999286;-36.81
1588.4799999999286;-36.55
1588.4999999999286;-36.31
1588.5199999999286;-36.13
1588.5399999999286;-36.0
1588.5599999999286;-35.92
1588.5799999999285;-35.8
1588.5999999999285;-35.66
1588.6199999999285;-35.56
1588.6399999999285;-35.49
1588.6599999999285;-35.38
1588.6799999999284;-35.25
1588.6999999999284;-35.18
1588.7199999999284;-35.12
1588.7399999999284;-35.06
1588.7599999999284;-35.0
1588.7799999999284;-34.96
1588.7999999999283;-34.92
1588.8199999999283;-34.91
1588.8399999999283;-34.91
1588.8599999999283;-34.93
1588.8799999999283;-34.91
1588.8999999999282;-34.9
1588.9199999999282;-34.9
1588.9399999999282;-34.91
1588.9599999999282;-34.92
1588.9799999999282;-34.91
1588.9999999999281;-34.95
1589.0199999999281;-35.04
1589.039999999928;-35.11
1589.059999999928;-35.16
1589.079999999928;-35.22
1589.099999999928;-35.29
1589.119999999928;-35.35
1589.139999999928;-35.41
1589.159999999928;-35.55
1589.179999999928;-35.69
1589.199999999928;-35.79
1589.219999999928;-35.92
1589.239999999928;-36.1
1589.259999999928;-36.3
1589.279999999928;-36.5
1589.2999999999279;-36.72
1589.3199999999279;-36.94
1589.3399999999278;-37.34
1589.3599999999278;-37.74
1589.3799999999278;-38.1
1589.3999999999278;-38.44
1589.4199999999278;-38.8
1589.4399999999277;-39.22
1589.4599999999277;-39.72
1589.4799999999277;-40.33
1589.4999999999277;-40.95
1589.5199999999277;-41.67
1589.5399999999277;-42.5
1589.5599999999276;-43.23
1589.5799999999276;-43.97
1589.5999999999276;-44.96
1589.6199999999276;-45.84
1589.6399999999276;-46.05
1589.6599999999275;-46.15
1589.6799999999275;-46.2
1589.6999999999275;-45.69
1589.7199999999275;-44.73
1589.7399999999275;-44.1
1589.7599999999275;-43.65
1589.7799999999274;-42.8
1589.7999999999274;-41.86
1589.8199999999274;-41.24
1589.8399999999274;-40.58
1589.8599999999274;-39.9
1589.8799999999273;-39.31
1589.8999999999273;-38.87
1589.9199999999273;-38.44
1589.9399999999273;-38.05
1589.9599999999273;-37.65
1589.9799999999273;-37.29
